File: data/TGA/archived/ExpDat_2024_03_12_PS_ULINE_350C_isotherm_1pt_min_S.csv
#EXPORTTYPE:                 ,DATA SINGLE
#FILE:                       ,2024_03_12_PS_ULINE_350C_isotherm_1pt_min_SCB_with_100C_stabilization.ngb-ss5
#FORMAT:                     ,NETZSCH5
#FTYPE:                      ,ANSI
#IDENTITY:                   ,styrofoam
#DECIMAL:                    ,POINT
#SEPARATOR:                  ,COMMA
#MTYPE:                      ,TG
#INSTRUMENT:                 ,NETZSCH STA 449F5
#PROJECT:                    ,005a-E
#DATE/TIME:                  ,3/12/2024 11:20:11 AM (UTC-4)
#CORR. FILE:                 ,
#TEMPCAL:                    ,28-06-2023 13:26
#SENSITIVITY:                ,28-06-2023 13:53
#LABORATORY:                 ,Tran/AAG
#OPERATOR:                   ,Stanley
#REMARK:                     ,
#SAMPLE:                     ,ULINE_styrofoam_peanuts
#SAMPLE MASS /mg:            ,5.47
#MATERIAL:                   ,
#REFERENCE:                  ,
#REFERENCE MASS /mg:         ,0
#TYPE OF CRUCIBLE:           ,Al2O3 85 µl, open
#SAMPLE CRUCIBLE MASS /mg:   ,0
#REFERENCE CRUCIBLE MASS /mg:,0
#DSC RANGE /µV:              ,5000
#TG RANGE /mg:               ,35000
#TAU-R:                      ,---
#CORR. CODE:                 ,000
#EXO:                        ,-1
#RANGE:                      ,30°C....800°C/0.0....10.0K/min
#SEGMENT:                    ,S1-5/5
#SEG. 1:                     ,30°C/10.0(K/min)/100°C
#SEG. 2:                     ,100°C/00:10/100°C
#SEG. 3:                     ,100°C/10.0(K/min)/350°C
#SEG. 4:                     ,350°C/04:00/350°C
#SEG. 5:                     ,350°C/10.0(K/min)/800°C

##Temp./°C,Time/min,Mass/%,Segment
 26.64900,  0.00000,    100,1
 29.39200,  1.10000,    100.536,1
 35.18000,  2.20000,     97.32157,1
 43.28600,  3.30000,     98.11371,1
 53.57200,  4.40000,     98.91828,1
 65.83100,  5.50000,     99.57386,1
 79.21700,  6.60000,     99.98537,1
 92.21469,  7.70000,     99.98819,2
100.359,  8.80000,     98.92233,2
105.233,  9.90000,     98.18246,2
108.419, 11.00000,     97.57731,2
109.813, 12.10000,     96.94075,2
109.945, 13.20000,     96.38891,2
109.319, 14.30000,     95.92938,2
108.226, 15.40000,     95.51584,2
106.92, 16.50000,     95.15387,2
106.007, 17.60000,     95.08995,3
109.629, 18.70000,     96.41572,3
116.331, 19.80000,     97.15814,3
125.353, 20.90000,     97.83656,3
136.624, 22.00000,     98.39086,3
149.158, 23.10000,     98.77148,3
162.265, 24.20000,     98.97623,3
175.443, 25.30000,     99.11261,3
188.457, 26.40000,     99.18099,3
201.132, 27.50000,     99.23053,3
213.41, 28.60000,     99.25941,3
225.324, 29.70000,     99.28428,3
236.93, 30.80000,     99.33400,3
248.303, 31.90000,     99.36490,3
259.505, 33.00000,     99.38355,3
270.582, 34.10000,     99.35868,3
281.591, 35.20000,     99.36910,3
292.53, 36.30000,     99.39177,3
303.433, 37.40000,     99.34022,3
314.325, 38.50000,     99.16015,3
325.204, 39.60000,     98.64113,3
336.074, 40.70000,     97.67112,3
346.947, 41.80000,     96.14278,3
352.664, 42.90000,     93.67751,4
353.936, 44.00000,     90.73437,4
354.724, 45.10000,     87.80585,4
354.407, 46.20000,     84.92285,4
353.877, 47.30000,     82.38099,4
353.242, 48.40000,     79.98391,4
352.649, 49.50000,     77.57459,4
352.116, 50.60000,     75.54150,4
351.676, 51.70000,     73.53528,4
351.319, 52.80000,     71.77952,4
351.036, 53.90000,     69.90768,4
350.813, 55.00000,     68.34004,4
350.635, 56.10000,     66.77642,4
350.504, 57.20000,     65.32669,4
350.39, 58.30000,     63.90786,4
350.306, 59.40000,     62.60073,4
350.243, 60.50000,     61.30402,4
350.19, 61.60000,     60.08793,4
350.16, 62.70000,     58.91938,4
350.127, 63.80000,     57.73016,4
350.111, 64.90000,     56.64022,4
350.08, 66.00000,     55.55027,4
350.068, 67.10000,     54.51005,4
350.065, 68.20000,     53.49049,4
350.055, 69.30000,     52.56179,4
350.054, 70.40000,     51.58775,4
350.039, 71.50000,     50.66527,4
350.027, 72.60000,     49.75941,4
350.029, 73.70000,     48.86600,4
350.034, 74.80000,     48.03455,4
350.026, 75.90000,     47.20731,4
350.02, 77.00000,     46.38208,4
350.019, 78.10000,     45.56929,4
350.021, 79.20000,     44.78739,4
350.024, 80.30000,     44.05320,4
350.031, 81.40000,     43.28592,4
350.031, 82.50000,     42.55174,4
350.025, 83.60000,     41.78867,4
350.03, 84.70000,     41.09159,4
350.037, 85.80000,     40.41316,4
350.031, 86.90000,     39.71207,4
350.036, 88.00000,     39.06691,4
350.046, 89.10000,     38.41536,4
350.027, 90.20000,     37.73912,4
350.036, 91.30000,     37.09580,4
350.031, 92.40000,     36.49397,4
350.034, 93.50000,     35.90055,4
350.023, 94.60000,     35.29232,4
350.033, 95.70000,     34.69049,4
350.027, 96.80000,     34.08245,4
350.016, 97.90000,     33.50750,4
350.037, 99.00000,     32.94296,4
350.024,100.1,     32.40932,4
350.028,101.2,     31.85923,4
350.033,102.3,     31.30695,4
350.026,103.4,     30.74644,4
350.03,104.5,     30.26673,4
350.037,105.6,     29.73931,4
350.022,106.7,     29.25740,4
350.031,107.8,     28.72596,4
350.031,108.9,     28.26051,4
350.034,110,     27.78080,4
350.036,111.1,     27.31133,4
350.035,112.2,     26.85832,4
350.029,113.3,     26.42815,4
350.036,114.4,     25.95247,4
350.043,115.5,     25.53254,4
350.041,116.6,     25.05484,4
350.036,117.7,     24.65777,4
350.041,118.8,     24.21938,4
350.027,119.9,     23.80366,4
350.03,121,     23.41682,4
350.029,122.1,     23.05704,4
350.03,123.2,     22.64753,4
350.024,124.3,     22.26892,4
350.015,125.4,     21.89269,4
350.033,126.5,     21.53693,4
350.024,127.6,     21.15009,4
350.025,128.7,     20.77367,4
350.018,129.8,     20.42011,4
350.021,130.9,     20.06234,4
350.026,132,     19.73346,4
350.024,133.1,     19.42724,4
350.031,134.2,     19.06947,4
350.02,135.3,     18.76764,4
350.03,136.4,     18.40969,4
350.027,137.5,     18.10366,4
350.02,138.6,     17.77477,4
350.026,139.7,     17.43766,4
350.029,140.8,     17.19360,4
350.025,141.9,     16.86892,4
350.028,143,     16.57313,4
350.033,144.1,     16.27532,4
350.027,145.2,     15.97130,4
350.026,146.3,     15.69214,4
350.029,147.4,     15.39013,4
350.038,148.5,     15.13382,4
350.02,149.6,     14.88976,4
350.026,150.7,     14.58976,4
350.034,151.8,     14.32925,4
350.034,152.9,     14.03346,4
350.038,154,     13.78940,4
350.033,155.1,     13.55356,4
350.032,156.2,     13.30969,4
350.011,157.3,     13.07587,4
350.034,158.4,     12.81316,4
350.019,159.5,     12.57751,4
350.022,160.6,     12.32523,4
350.026,161.7,     12.12651,4
350.026,162.8,     11.88044,4
350.023,163.9,     11.64479,4
350.022,165,     11.40475,4
350.035,166.1,     11.20841,4
350.023,167.2,     11.00969,4
350.038,168.3,     10.78848,4
350.044,169.4,     10.56508,4
350.023,170.5,     10.39141,4
350.021,171.6,     10.18867,4
350.017,172.7,      9.96124,4
350.01,173.8,      9.75649,4
350.029,174.9,      9.59726,4
350.025,176,      9.39452,4
350.012,177.1,      9.22084,4
350.029,178.2,      9.04497,4
350.037,179.3,      8.86929,4
350.032,180.4,      8.67678,4
350.03,181.5,      8.47623,4
350.028,182.6,      8.32943,4
350.037,183.7,      8.16399,4
350.036,184.8,      7.98611,4
350.031,185.9,      7.83309,4
350.025,187,      7.64077,4
350.026,188.1,      7.48355,4
350.033,189.2,      7.33455,4
350.039,190.3,      7.17733,4
350.034,191.4,      7.01810,4
350.017,192.5,      6.89616,4
350.029,193.6,      6.72249,4
350.031,194.7,      6.59835,4
350.019,195.8,      6.43693,4
350.023,196.9,      6.25503,4
350.027,198,      6.10603,4
350.025,199.1,      6.01298,4
350.026,200.2,      5.88684,4
350.036,201.3,      5.76691,4
350.043,202.4,      5.61792,4
350.033,203.5,      5.46709,4
350.031,204.6,      5.37404,4
350.024,205.7,      5.24369,4
350.04,206.8,      5.14022,4
350.031,207.9,      4.98519,4
350.048,209,      4.87971,4
350.035,210.1,      4.77002,4
350.043,211.2,      4.64186,4
350.057,212.3,      4.51572,4
350.042,213.4,      4.41426,4
350.031,214.5,      4.31499,4
350.029,215.6,      4.18684,4
350.021,216.7,      4.08336,4
350.028,217.8,      3.98208,4
350.021,218.9,      3.87861,4
350.031,220,      3.76069,4
350.043,221.1,      3.67605,4
350.039,222.2,      3.54973,4
350.041,223.3,      3.47532,4
350.036,224.4,      3.35539,4
350.038,225.5,      3.26033,4
350.037,226.6,      3.18574,4
350.027,227.7,      3.09269,4
350.039,228.8,      3.01828,4
350.036,229.9,      2.89415,4
350.035,231,      2.79287,4
350.041,232.1,      2.71225,4
350.033,233.2,      2.64186,4
350.026,234.3,      2.56947,4
350.029,235.4,      2.47221,4
350.023,236.5,      2.38336,4
350.035,237.6,      2.30896,4
350.032,238.7,      2.23437,4
350.026,239.8,      2.15996,4
350.034,240.9,      2.08556,4
350.035,242,      2.01115,4
350.033,243.1,      1.91792,4
350.048,244.2,      1.89104,4
350.04,245.3,      1.79397,4
350.025,246.4,      1.72980,4
350.031,247.5,      1.65119,4
350.034,248.6,      1.60165,4
350.049,249.7,      1.52084,4
350.039,250.8,      1.46508,4
350.035,251.9,      1.41335,4
350.03,253,      1.33473,4
350.033,254.1,      1.28300,4
350.038,255.2,      1.22724,4
350.034,256.3,      1.16527,4
350.034,257.4,      1.06179,4
350.018,258.5,      1.01828,4
350.03,259.6,      0.98117,4
350.028,260.7,      0.88592,4
350.029,261.8,      0.86527,4
350.027,262.9,      0.78885,4
350.033,264,      0.77221,4
350.029,265.1,      0.74735,4
350.041,266.2,      0.67294,4
350.039,267.3,      0.64186,4
350.042,268.4,      0.58812,4
350.028,269.5,      0.51371,4
350.032,270.6,      0.45375,4
350.034,271.7,      0.42267,4
350.034,272.8,      0.37313,4
350.033,273.9,      0.32340,4
350.039,275,      0.24899,4
350.034,276.1,      0.22212,4
350.035,277.2,      0.17239,4
350.043,278.3,      0.14771,4
350.037,279.4, 9.798903e-02,4
350.037,280.5, 1.736746e-02,4
350.031,281.6,-7.495430e-03,4
353.505,282.7,      0.11624,5
363.059,283.8,      0.45662,5
372.73,284.9,      0.56834,5
383.86,286,      0.63976,5
395.331,287.1,      0.58886,5
406.928,288.2,      0.35250,5
418.502,289.3,-9.837629e-04,5
429.966,290.4,     -0.54936,5
441.33,291.5,     -1.03064,5
452.598,292.6,     -1.26298,5
463.81,293.7,     -1.23633,5
474.939,294.8,     -1.10129,5
486.029,295.9,     -0.96337,5
497.068,297,     -0.80289,5
508.086,298.1,     -0.65987,5
519.096,299.2,     -0.51966,5
530.086,300.3,     -0.38770,5
541.08,301.4,     -0.25815,5
552.053,302.5,     -0.14887,5
563.031,303.6,-4.458688e-02,5
574.016,304.7, 7.580126e-02,5
585.007,305.8,      0.19536,5
595.992,306.9,      0.28300,5
606.99,308,      0.36719,5
617.979,309.1,      0.46669,5
628.96,310.2,      0.58442,5
639.961,311.3,      0.64140,5
650.963,312.4,      0.71873,5
661.96,313.5,      0.82784,5
672.927,314.6,      0.88546,5
683.944,315.7,      0.95633,5
694.945,316.8,      1.04068,5
705.95,317.9,      1.08270,5
716.95,319,      1.17502,5
727.945,320.1,      1.22802,5
738.943,321.2,      1.29158,5
749.954,322.3,      1.33991,5
760.963,323.4,      1.43330,5
771.951,324.5,      1.46638,5
782.954,325.6,      1.54249,5
793.953,326.7,      1.59719,5