File: data/TGA/archived/ExpDat_2024_03_11_PS_P40042_Mn_1200_350C_isotherm.csv
#EXPORTTYPE:                 ,DATA SINGLE
#FILE:                       ,2024_03_11_PS_P40042_Mn_1200_350C_isotherm_1pt_min_SCB_with_100C_stabilization.ngb-ss5
#FORMAT:                     ,NETZSCH5
#FTYPE:                      ,ANSI
#IDENTITY:                   ,polystyrene
#DECIMAL:                    ,POINT
#SEPARATOR:                  ,COMMA
#MTYPE:                      ,TG
#INSTRUMENT:                 ,NETZSCH STA 449F5
#PROJECT:                    ,005a-E
#DATE/TIME:                  ,3/11/2024 3:48:32 PM (UTC-4)
#CORR. FILE:                 ,
#TEMPCAL:                    ,28-06-2023 13:26
#SENSITIVITY:                ,28-06-2023 13:53
#LABORATORY:                 ,Tran/AAG
#OPERATOR:                   ,Stanley
#REMARK:                     ,
#SAMPLE:                     ,PS-P40042-1.2K
#SAMPLE MASS /mg:            ,5.58
#MATERIAL:                   ,
#REFERENCE:                  ,
#REFERENCE MASS /mg:         ,0
#TYPE OF CRUCIBLE:           ,Al2O3 85 µl, open
#SAMPLE CRUCIBLE MASS /mg:   ,0
#REFERENCE CRUCIBLE MASS /mg:,0
#DSC RANGE /µV:              ,5000
#TG RANGE /mg:               ,35000
#TAU-R:                      ,---
#CORR. CODE:                 ,000
#EXO:                        ,-1
#RANGE:                      ,30°C....800°C/0.0....10.0K/min
#SEGMENT:                    ,S1-5/5
#SEG. 1:                     ,30°C/10.0(K/min)/100°C
#SEG. 2:                     ,100°C/00:10/100°C
#SEG. 3:                     ,100°C/10.0(K/min)/350°C
#SEG. 4:                     ,350°C/04:00/350°C
#SEG. 5:                     ,350°C/10.0(K/min)/800°C

##Temp./°C,Time/min,Mass/%,Segment
 27.30400,  0.00000,    100,1
 34.17500,  2.00000,     97.21022,1
 49.51100,  4.00000,     98.66183,1
 71.47200,  6.00000,     99.79516,1
 94.60900,  8.00000,     99.66738,2
105.512, 10.00000,     97.86505,2
109.842, 12.00000,     96.47419,2
109.723, 14.00000,     95.30842,2
107.694, 16.00000,     94.48136,2
106.683, 18.00000,     94.64355,3
117.44, 20.00000,     96.33638,3
136.028, 22.00000,     97.33387,3
159.179, 24.00000,     97.71703,3
183.14, 26.00000,     97.65627,3
206.277, 28.00000,     97.43530,3
228.169, 30.00000,     97.11703,3
249.033, 32.00000,     96.52903,3
269.372, 34.00000,     95.49910,3
289.375, 36.00000,     93.46362,3
309.24, 38.00000,     89.67634,3
329.069, 40.00000,     83.74606,3
348.858, 42.00000,     75.68100,4
354.426, 44.00000,     66.99552,4
355.016, 46.00000,     60.65376,4
353.874, 48.00000,     55.90968,4
352.642, 50.00000,     52.23799,4
351.709, 52.00000,     49.28602,4
351.086, 54.00000,     46.85323,4
350.681, 56.00000,     44.73047,4
350.44, 58.00000,     42.88351,4
350.246, 60.00000,     41.26971,4
350.141, 62.00000,     39.80376,4
350.073, 64.00000,     38.47796,4
350.06, 66.00000,     37.22491,4
350.054, 68.00000,     36.18495,4
350.03, 70.00000,     35.20358,4
350.034, 72.00000,     34.20197,4
350.051, 74.00000,     33.34247,4
350.051, 76.00000,     32.53548,4
350.06, 78.00000,     31.72258,4
350.05, 80.00000,     30.99875,4
350.052, 82.00000,     30.27294,4
350.02, 84.00000,     29.62007,4
350.028, 86.00000,     28.99355,4
350.015, 88.00000,     28.48065,4
350.021, 90.00000,     27.59875,4
350.032, 92.00000,     27.29265,4
350.004, 94.00000,     26.74713,4
350.033, 96.00000,     26.25251,4
350.037, 98.00000,     25.78423,4
350.041,100,     25.31380,4
350.043,102,     24.93262,4
350.034,104,     24.48871,4
350.035,106,     24.04677,4
350.034,108,     23.67168,4
350.042,110,     23.29050,4
350.033,112,     22.89910,4
350.101,114,     22.50591,4
350.04,116,     22.15914,4
350.047,118,     21.83674,4
350.049,120,     21.50018,4
350.036,122,     21.18190,4
350.026,124,     20.88387,4
350.028,126,     20.57975,4
350.03,128,     20.27563,4
350.028,130,     19.96147,4
350.04,132,     19.70197,4
350.03,134,     19.43226,4
350.028,136,     19.18495,4
350.034,138,     18.89301,4
350.032,140,     18.61326,4
350.03,142,     18.35771,4
350.026,144,     18.11846,4
350.024,146,     17.84677,4
350.015,148,     17.64606,4
350.026,150,     17.40681,4
350.034,152,     17.17778,4
350.024,154,     16.90806,4
350.033,156,     16.70341,4
350.026,158,     16.46004,4
350.021,160,     16.26147,4
350.026,162,     16.04247,4
350.033,164,     15.83763,4
350.029,166,     15.63297,4
350.049,168,     15.40986,4
350.036,170,     15.21720,4
350.033,172,     15.01039,4
350.032,174,     14.81183,4
350.039,176,     14.63548,4
350.041,178,     14.45287,4
350.016,180,     14.25824,4
350.022,182,     14.06971,4
350.03,184,     13.91774,4
350.048,186,     13.73530,4
350.025,188,     13.54677,4
350.03,190,     13.41685,4
350.04,192,     13.23853,4
350.042,194,     13.06004,4
350.036,196,     12.86541,4
350.025,198,     12.74391,4
350.032,200,     12.57151,4
350.034,202,     12.41129,4
350.034,204,     12.26738,4
350.03,206,     12.12742,4
350.031,208,     11.97742,4
350.029,210,     11.83154,4
350.038,212,     11.68548,4
350.038,214,     11.54158,4
350.031,216,     11.40161,4
350.029,218,     11.25573,4
350.042,220,     11.10968,4
350.034,222,     11.01452,4
350.008,224,     10.88262,4
350.015,226,     10.74480,4
350.024,228,     10.63118,4
350.021,230,     10.48118,4
350.041,232,     10.36165,4
350.017,234,     10.25609,4
350.027,236,     10.15072,4
350.045,238,     10.02706,4
350.039,240,      9.91147,4
350.044,242,      9.78781,4
350.046,244,      9.68656,4
350.029,246,      9.55878,4
350.025,248,      9.46541,4
350.049,250,      9.31953,4
350.036,252,      9.23226,4
350.022,254,      9.11075,4
350.029,256,      8.99516,4
350.022,258,      8.89785,4
350.028,260,      8.78835,4
350.023,262,      8.68692,4
350.043,264,      8.58961,4
350.024,266,      8.46183,4
350.02,268,      8.33620,4
350.033,270,      8.26326,4
350.026,272,      8.18011,4
350.03,274,      8.02796,4
350.043,276,      7.95914,4
350.027,278,      7.84767,4
350.031,280,      7.78065,4
350.027,282,      7.65699,5
364.058,284,      8.11523,5
383.205,286,      8.20233,5
404.336,288,      7.66918,5
425.517,290,      5.64588,5
446.316,292,      2.28226,5
466.773,294,     -0.13638,5
487.023,296,     -0.51344,5
507.154,298,     -0.38781,5
527.203,300,     -0.19104,5
547.204,302, 2.992832e-02,5
567.172,304,      0.23262,5
587.174,306,      0.40287,5
607.168,308,      0.62186,5
627.16,310,      0.78011,5
647.17,312,      0.92599,5
667.18,314,      1.04964,5
687.155,316,      1.16111,5
707.12,318,      1.31935,5
727.066,320,      1.44104,5
747.017,322,      1.57473,5
766.935,324,      1.73907,5
786.832,326,      1.84839,5