File: data/TGA/archived/ExpDat_2024_03_13_PS-SCF3_P40042_Mn_1200_350C_isot.csv
#EXPORTTYPE:                 ,DATA SINGLE
#FILE:                       ,2024_03_13_PS-SCF3_P40042_Mn_1200_350C_isotherm_1pt_min_SCB_with_100C_stabilization.ngb-ss5
#FORMAT:                     ,NETZSCH5
#FTYPE:                      ,ANSI
#IDENTITY:                   ,PS-1.2K-SCF3
#DECIMAL:                    ,POINT
#SEPARATOR:                  ,COMMA
#MTYPE:                      ,TG
#INSTRUMENT:                 ,NETZSCH STA 449F5
#PROJECT:                    ,005a-E
#DATE/TIME:                  ,3/13/2024 8:20:00 PM (UTC-4)
#CORR. FILE:                 ,
#TEMPCAL:                    ,28-06-2023 13:26
#SENSITIVITY:                ,28-06-2023 13:53
#LABORATORY:                 ,Tran/AAG
#OPERATOR:                   ,Stanley
#REMARK:                     ,
#SAMPLE:                     ,005a-F1v2
#SAMPLE MASS /mg:            ,5.27
#MATERIAL:                   ,
#REFERENCE:                  ,-----
#REFERENCE MASS /mg:         ,0
#TYPE OF CRUCIBLE:           ,Al2O3 85 µl, open
#SAMPLE CRUCIBLE MASS /mg:   ,0
#REFERENCE CRUCIBLE MASS /mg:,0
#DSC RANGE /µV:              ,5000
#TG RANGE /mg:               ,35000
#TAU-R:                      ,---
#CORR. CODE:                 ,000
#EXO:                        ,-1
#RANGE:                      ,30°C....800°C/0.0....10.0K/min
#SEGMENT:                    ,S1-5/5
#SEG. 1:                     ,30°C/10.0(K/min)/100°C
#SEG. 2:                     ,100°C/00:10/100°C
#SEG. 3:                     ,100°C/10.0(K/min)/350°C
#SEG. 4:                     ,350°C/04:00/350°C
#SEG. 5:                     ,350°C/10.0(K/min)/800°C

##Temp./°C,Time/min,Mass/%,Segment
 29.37300,  0.00000,    100,1
 35.99200,  2.00000,     96.94744,1
 50.49800,  4.00000,     98.37268,1
 71.94800,  6.00000,     99.16281,1
 94.71148,  8.00000,     98.90937,2
105.319, 10.00000,     96.88438,2
109.469, 12.00000,     95.19056,2
109.322, 14.00000,     93.77466,2
107.365, 16.00000,     92.74984,2
106.631, 18.00000,     92.92452,3
117.768, 20.00000,     94.60964,3
136.685, 22.00000,     95.62277,3
159.926, 24.00000,     95.90626,3
183.804, 26.00000,     95.88045,3
206.798, 28.00000,     95.64004,3
228.493, 30.00000,     95.31594,3
249.268, 32.00000,     94.88863,3
269.495, 34.00000,     94.36327,3
289.452, 36.00000,     93.41600,3
309.256, 38.00000,     91.61051,3
329.013, 40.00000,     88.69952,3
348.763, 42.00000,     84.24008,4
353.788, 44.00000,     77.09604,4
354.345, 46.00000,     70.34558,4
353.357, 48.00000,     64.23696,4
352.331, 50.00000,     59.00640,4
351.53, 52.00000,     54.48158,4
350.989, 54.00000,     50.46085,4
350.653, 56.00000,     46.92278,4
350.423, 58.00000,     43.75655,4
350.275, 60.00000,     40.93623,4
350.186, 62.00000,     38.37514,4
350.138, 64.00000,     36.09360,4
350.084, 66.00000,     33.97811,4
350.056, 68.00000,     32.06608,4
350.046, 70.00000,     30.32025,4
350.045, 72.00000,     28.70652,4
350.031, 74.00000,     27.22749,4
350.029, 76.00000,     25.89916,4
350.021, 78.00000,     24.64930,4
350.028, 80.00000,     23.43814,4
350.032, 82.00000,     22.37781,4
350.035, 84.00000,     21.33055,4
350.034, 86.00000,     20.36660,4
350.029, 88.00000,     19.43283,4
350.038, 90.00000,     18.60645,4
350.039, 92.00000,     17.81631,4
350.031, 94.00000,     17.08861,4
350.032, 96.00000,     16.38003,4
350.043, 98.00000,     15.73416,4
350.027,100,     15.07514,4
350.03,102,     14.49128,4
350.019,104,     13.94383,4
350.035,106,     13.39431,4
350.031,108,     12.88714,4
350.036,110,     12.37666,4
350.02,112,     11.95806,4
350.017,114,     11.53029,4
350.027,116,     11.10152,4
350.028,118,     10.73245,4
350.039,120,     10.36281,4
350.025,122,     10.00247,4
350.036,124,      9.65693,4
350.028,126,      9.34060,4
350.028,128,      9.01499,4
350.035,130,      8.70588,4
350.031,132,      8.40968,4
350.029,134,      8.10703,4
350.025,136,      7.84516,4
350.028,138,      7.57894,4
350.031,140,      7.32979,4
350.034,142,      7.11100,4
350.041,144,      6.82752,4
350.024,146,      6.58918,4
350.03,148,      6.37457,4
350.032,150,      6.14915,4
350.019,152,      5.93662,4
350.017,154,      5.74782,4
350.017,156,      5.51592,4
350.037,158,      5.32388,4
350.036,160,      5.16603,4
350.024,162,      4.98577,4
350.026,164,      4.83321,4
350.027,166,      4.63795,4
350.025,168,      4.48558,4
350.027,170,      4.29658,4
350.03,172,      4.14421,4
350.033,174,      4.00892,4
350.024,176,      3.85446,4
350.036,178,      3.67094,4
350.033,180,      3.60101,4
350.019,182,      3.44649,4
350.036,184,      3.30266,4
350.027,186,      3.18672,4
350.033,188,      3.06224,4
350.03,190,      2.95920,4
350.018,192,      2.82182,4
350.036,194,      2.71878,4
350.032,196,      2.61139,4
350.032,198,      2.48273,4
350.037,200,      2.40531,4
350.038,202,      2.33454,4
350.022,204,      2.21429,4
350.039,206,      2.11765,4
350.034,208,      2.02106,4
350.035,210,      1.90949,4
350.034,212,      1.83224,4
350.041,214,      1.77002,4
350.036,216,      1.69260,4
350.025,218,      1.59184,4
350.029,220,      1.50588,4
350.043,222,      1.44051,4
350.046,224,      1.36433,4
350.031,226,      1.30626,4
350.026,228,      1.23993,4
350.026,230,      1.13453,4
350.023,232,      1.06584,4
350.042,234,      1.01006,4
350.032,236,      0.95197,4
350.028,238,      0.87476,4
350.036,240,      0.81063,4
350.026,242,      0.77818,4
350.026,244,      0.72885,4
350.026,246,      0.66869,4
350.039,248,      0.57967,4
350.04,250,      0.57211,4
350.037,252,      0.51045,4
350.029,254,      0.44326,4
350.028,256,      0.41973,4
350.033,258,      0.37249,4
350.038,260,      0.33169,4
350.029,262,      0.25863,4
350.024,264,      0.23947,4
350.026,266,      0.21157,4
350.023,268,      0.13207,4
350.031,270,      0.14269,4
350.035,272, 9.127135e-02,4
350.022,274, 8.921908e-02,4
350.034,276, 3.548387e-02,4
350.043,278, 3.225806e-03,4
350.04,280,-2.030361e-02,4
349.996,282,-5.050931e-02,5
364.682,284,      0.57342,5
383.826,286,      0.89188,5
404.761,288,      1.11266,5
425.703,290,      1.31661,5
446.313,292,      1.41678,5
466.679,294,      1.54084,5
486.846,296,      1.68598,5
506.916,298,      1.82417,5
526.929,300,      2.00481,5
546.93,302,      2.16444,5
566.884,304,      2.35966,5
586.865,306,      2.53204,5
606.86,308,      2.69457,5
626.865,310,      2.84896,5
646.875,312,      2.98975,5
666.87,314,      3.14862,5
686.882,316,      3.28022,5
706.902,318,      3.40528,5
726.936,320,      3.49442,5
746.967,322,      3.60139,5
767.006,324,      3.70495,5
787.044,326,      3.80578,5