File: UV-Vis data/2024_09/2024_09_11_non-imine polymer t=24hrs FeCl3 solution doping.csv
t=24hrs FeCl3 0uM,,t=24hrs FeCl3 5uM,,t=24hrs FeCl3 20uM,,t=24hrs FeCl3 50uM,,t=24hrs FeCl3 100uM,,
Wavelength (nm),Abs,Wavelength (nm),Abs,Wavelength (nm),Abs,Wavelength (nm),Abs,Wavelength (nm),Abs,
1400,0.0140612,1400,0.0148932,1400,0.0150778,1400,0.0142609,1400,0.013205,
1390,0.00149897,1390,0.00199661,1390,0.00210923,1390,0.00238468,1390,0.00183879,
1380,0.000196597,1380,0.000704748,1380,0.000535859,1380,0.00089038,1380,0.000801833,
1370,-0.00029381,1370,0.000211488,1370,0.000253239,1370,0.000671613,1370,0.000831761,
1360,-0.000936528,1360,-0.000435546,1360,-0.000600398,1360,-2.8163e-05,1360,0.000298853,
1350,-0.0017209,1350,-0.00135509,1350,-0.00146526,1350,-0.000690864,1350,-0.000169002,
1340,-0.00214561,1340,-0.00181088,1340,-0.00172369,1340,-0.000862595,1340,-0.000102703,
1330,-0.00234287,1330,-0.00192449,1330,-0.00170208,1330,-0.000847714,1330,-0.000150578,
1320,-0.00241727,1320,-0.00199696,1320,-0.00174911,1320,-0.000715106,1320,-0.000236119,
1310,-0.00262867,1310,-0.00211727,1310,-0.00157706,1310,-0.000825443,1310,-0.000539336,
1300,-0.00241063,1300,-0.00212722,1300,-0.0014425,1300,-0.000803843,1300,-0.000548798,
1290,-0.00242685,1290,-0.00223024,1290,-0.00179201,1290,-0.000957088,1290,-0.000713659,
1280,-0.00236913,1280,-0.00220866,1280,-0.00179,1280,-0.000982193,1280,-0.00092418,
1270,-0.00240291,1270,-0.00225393,1270,-0.00181469,1270,-0.00099304,1270,-0.00117167,
1260,-0.00241846,1260,-0.00224106,1260,-0.00186176,1260,-0.00114415,1260,-0.00129217,
1250,-0.00249743,1250,-0.00231146,1250,-0.00192496,1250,-0.00115241,1250,-0.00115613,
1240,-0.00255075,1240,-0.00233463,1240,-0.00202272,1240,-0.00130249,1240,-0.00103131,
1230,-0.00263876,1230,-0.00234431,1230,-0.00230698,1230,-0.00155426,1230,-0.00119837,
1220,-0.00260886,1220,-0.00234885,1220,-0.00235956,1220,-0.00134595,1220,-0.00123089,
1210,-0.00269211,1210,-0.00244796,1210,-0.00256223,1210,-0.00130517,1210,-0.00146273,
1200,-0.00269031,1200,-0.00247066,1200,-0.00263906,1200,-0.00152459,1200,-0.00157448,
1190,-0.00251894,1190,-0.00242407,1190,-0.00262558,1190,-0.00133929,1190,-0.00168042,
1180,-0.0021894,1180,-0.00232094,1180,-0.00237001,1180,-0.000983846,1180,-0.0014456,
1170,-0.00185939,1170,-0.00222257,1170,-0.00204823,1170,-0.000609756,1170,-0.00100523,
1160,-0.00133248,1160,-0.00198516,1160,-0.00178221,1160,-0.000197983,1160,-0.000510947,
1150,-0.000971139,1150,-0.00161229,1150,-0.00143373,1150,0.000441217,1150,0.000554909,
1140,-0.000467146,1140,-0.000743843,1140,0.0002952,1140,0.00131072,1140,0.00130516,
1130,-0.000385013,1130,-0.000475369,1130,0.000414658,1130,0.00153612,1130,0.00160237,
1120,-0.00116754,1120,-0.00150932,1120,-0.00116181,1120,0.000214233,1120,0.000100889,
1110,-0.00159269,1110,-0.00189846,1110,-0.00174555,1110,-0.000316263,1110,-0.000452768,
1100,-0.00187779,1100,-0.00199149,1100,-0.00184196,1100,-0.00037415,1100,-0.000533182,
1090,-0.00202195,1090,-0.00197603,1090,-0.00186846,1090,-0.00049471,1090,-0.000544972,
1080,-0.00213592,1080,-0.00197335,1080,-0.0018896,1080,-0.000589179,1080,-0.000511464,
1070,-0.00216003,1070,-0.00189784,1070,-0.00190171,1070,-0.000610169,1070,-0.000401358,
1060,-0.00212485,1060,-0.00180938,1060,-0.00191609,1060,-0.000675667,1060,-0.000247399,
1050,-0.00205065,1050,-0.00175695,1050,-0.00183124,1050,-0.000591764,1050,-7.05077e-05,
1040,-0.00212376,1040,-0.00178824,1040,-0.00189918,1040,-0.000621646,1040,-7.5684e-05,
1030,-0.00207039,1030,-0.00169568,1030,-0.00176463,1030,-0.000539025,1030,7.78979e-05,
1020,-0.00208013,1020,-0.0017275,1020,-0.0017374,1020,-0.000518238,1020,0.00023143,
1010,-0.00209878,1010,-0.00172797,1010,-0.00165979,1010,-0.000443821,1010,0.000360949,
1000,-0.00210522,1000,-0.00172889,1000,-0.00162513,1000,-0.00040053,1000,0.000516059,
990,-0.00205637,990,-0.00177984,990,-0.00151159,990,-0.000228099,990,0.000704488,
980,-0.0018847,980,-0.00166015,980,-0.0012281,980,3.58535e-05,980,0.001244,
970,-0.00214159,970,-0.0019549,970,-0.00162921,970,-0.00058861,970,0.000854559,
960,-0.00179314,960,-0.00159423,960,-0.000920203,960,0.000187351,960,0.00174714,
950,-0.00179459,950,-0.00162235,950,-0.000574082,950,0.000665857,950,0.00232633,
940,-0.00188532,940,-0.00169151,940,-0.000643307,940,0.000717478,940,0.00226395,
930,-0.00191382,930,-0.00161894,930,-0.000784309,930,0.000858243,930,0.00245892,
920,-0.00192949,920,-0.00157773,920,-0.000807771,920,0.000960395,920,0.00274957,
910,-0.00196011,910,-0.00162859,910,-0.000888842,910,0.000998845,910,0.00317143,
900,-0.00196305,900,-0.0016487,900,-0.000820638,900,0.0012361,900,0.00374385,
890,0.00176291,890,0.000741333,890,0.000385458,890,0.00240363,890,0.00613117,
880,0.000453319,880,0.00101483,880,0.00113918,880,0.00310084,880,0.00712684,
870,-0.000404823,870,-0.000290343,870,0.000608721,870,0.00424114,870,0.00725198,
860,0.000441036,860,0.000941872,860,0.00162575,860,0.00489744,860,0.00865874,
850,0.000707911,850,0.00134003,850,0.00148349,850,0.00506051,850,0.0092133,
840,0.000966388,840,0.00144084,840,0.00192042,840,0.00580566,840,0.009998939,
830,0.000722509,830,0.00142396,830,0.00176936,830,0.00619471,830,0.0107485,
820,0.000791745,820,0.00150155,820,0.00178545,820,0.00641031,820,0.0115155,
810,0.000603485,810,0.001439,810,0.00171561,810,0.00660492,810,0.0122487,
800,0.000527125,800,0.00141074,800,0.00146435,800,0.00676796,800,0.0128245,
790,0.000452904,790,0.00132796,790,0.00136543,790,0.00686141,790,0.0139385,
780,0.000658391,780,0.00144591,780,0.0014697,780,0.00730389,780,0.015053,
770,0.000528887,770,0.00118424,770,0.00137724,770,0.00742861,770,0.0158773,
760,0.000493486,760,0.00148051,760,0.0015668,760,0.00773929,760,0.0167823,
750,0.000449665,750,0.00129649,750,0.00153163,750,0.0077839,750,0.0175957,
740,0.000421473,740,0.00141773,740,0.00152277,740,0.00795305,740,0.0183209,
730,0.000389733,730,0.00142248,730,0.0014464,730,0.00822878,730,0.0191817,
720,0.000428339,720,0.00148165,720,0.0015781,720,0.00842549,720,0.0200213,
710,0.000471976,710,0.00151188,710,0.00152931,710,0.00860859,710,0.0205936,
700,0.000524741,700,0.00166034,700,0.00170555,700,0.00891407,700,0.0212051,
690,0.000534019,690,0.00178033,690,0.00177807,690,0.00901255,690,0.0217053,
680,0.00106659,680,0.00231995,680,0.00221168,680,0.00944946,680,0.0222646,
670,0.00147401,670,0.00269406,670,0.00248519,670,0.00976495,670,0.0227091,
660,0.000958683,660,0.00216557,660,0.00195084,660,0.00937198,660,0.0224826,
650,0.000812103,650,0.00197313,650,0.00176455,650,0.00915754,650,0.0223714,
640,0.00102181,640,0.00215644,640,0.00194684,640,0.00917687,640,0.0222251,
630,0.00133232,630,0.0024453,630,0.00212408,630,0.00915347,630,0.0217585,
620,0.00196109,620,0.00291281,620,0.00256567,620,0.00916867,620,0.0212135,
610,0.00302389,610,0.00383036,610,0.00319184,610,0.00923557,610,0.020571,
600,0.00469441,600,0.00526565,600,0.00418395,600,0.00922573,600,0.0200603,
590,0.00814985,590,0.007924,590,0.0058744,590,0.00926278,590,0.0194148,
580,0.0177926,580,0.0148861,580,0.00944948,580,0.00942028,580,0.0188228,
570,0.0483181,570,0.0356353,570,0.0167006,570,0.0097322,570,0.0184718,
560,0.126221,560,0.0899236,560,0.0313236,560,0.0106936,560,0.0182116,
550,0.255553,550,0.188311,550,0.0558567,550,0.0123613,550,0.0185856,
540,0.398897,540,0.310742,540,0.0908397,540,0.0155017,540,0.0196579,
530,0.519928,530,0.427946,530,0.134936,530,0.0216112,530,0.0223805,
520,0.621173,520,0.532709,520,0.18717,520,0.032135,520,0.0281306,
510,0.705936,510,0.625457,510,0.244631,510,0.0486021,510,0.0384049,
500,0.760843,500,0.698018,500,0.307075,500,0.0723024,500,0.054284,
490,0.778101,490,0.741152,490,0.372411,490,0.102158,490,0.0743393,
480,0.766039,480,0.756529,480,0.435515,480,0.136135,480,0.097981,
470,0.732111,470,0.749476,470,0.493318,470,0.173628,470,0.126026,
460,0.681084,460,0.724004,460,0.54508,460,0.214122,460,0.158649,
450,0.617971,450,0.680179,450,0.576401,450,0.257962,450,0.197506,
440,0.54989,440,0.623266,440,0.584214,440,0.303922,440,0.244467,
430,0.484886,430,0.564382,430,0.580119,430,0.343366,430,0.290339,
420,0.422935,420,0.503035,420,0.555012,420,0.365256,420,0.325448,
410,0.366489,410,0.442439,410,0.516231,410,0.38169,410,0.363053,
400,0.318443,400,0.387594,400,0.47322,400,0.392876,400,0.404829,
390,0.270541,390,0.33301,390,0.420483,390,0.389252,390,0.447487,
380,0.230816,380,0.286835,380,0.375019,380,0.386732,380,0.503992,
370,0.207434,370,0.259042,370,0.336303,370,0.38216,370,0.573903,
360,0.197745,360,0.249171,360,0.310727,360,0.375288,360,0.646581,
350,0.188082,350,0.240307,350,0.293321,350,0.364421,350,0.698176,
340,0.17938,340,0.228763,340,0.280167,340,0.356755,340,0.713564,
330,0.173377,330,0.219892,330,0.27216,330,0.359237,330,0.687746,
320,0.166563,320,0.207956,320,0.262042,320,0.360102,320,0.637076,
310,0.161519,310,0.198776,310,0.257195,310,0.358121,310,0.601466,
300,0.158874,300,0.195093,300,0.260604,300,0.352473,300,0.581013,

t=24hrs FeCl3 0uM,
t=24hrs FeCl3 0uM
Collection Time: 2024-09-11 11:17:12 AM
Operator Name  :
Scan Version 6.4.0.1610
Parameter List :
Instrument  Cary 7000
Instrument Version  3.07
Method Log     :
Method Name    :
Date/Time stamp: 2024-09-11 10:17:34 AM
Method Modifications:
ConcentrationReportSelected Changed: 2024-09-11 10:17:35 AM, Old:Choice 0, New:Choice 1
ConcentrationReportSelected Changed: 2024-09-11 10:17:35 AM, Old:ON, New:Choice 0
MCAReportSelected Changed: 2024-09-11 10:17:35 AM, Old:Choice 0, New:Choice 1
MCAReportSelected Changed: 2024-09-11 10:17:35 AM, Old:ON, New:Choice 0
X Start nm Changed: 2024-09-11 10:27:39 AM, Old:800.000, New:1400.000
X Stop nm Changed: 2024-09-11 10:27:39 AM, Old:200.000, New:300.000
UVVIS Scan Rate nm Changed: 2024-09-11 10:27:39 AM, Old:  602.007, New:  600.000
NIR Scan Rate nm Changed: 2024-09-11 10:27:39 AM, Old:    0.004, New:   12.000
Common Interval nm Changed: 2024-09-11 10:27:39 AM, Old:    1.000, New:    0.667
Source changeover Changed: 2024-09-11 10:27:39 AM, Old:   350.00, New:   300.00
Detector changeover Changed: 2024-09-11 10:27:39 AM, Old:   800.00, New:   900.00
Grating changeover Changed: 2024-09-11 10:27:39 AM, Old:   800.00, New:   900.00
Baseline Correction Changed: 2024-09-11 10:27:39 AM, Old:0, New:2
Sipper Type Changed: 2024-09-11 10:27:39 AM, Old:Internal RSA, New:External sipper
End Method Modifications
<Current Wavelength> , 300.000
<SBW (nm)> , 2.00
<Energy> , 52.48
<Slit Height> , Full

t=24hrs FeCl3 5uM,
t=24hrs FeCl3 5uM
Collection Time: 2024-09-11 11:21:50 AM
Operator Name  :
Scan Version 6.4.0.1610
Parameter List :
Instrument  Cary 7000
Instrument Version  3.07
Method Log     :
Method Name    :
Date/Time stamp: 2024-09-11 10:17:34 AM
Method Modifications:
ConcentrationReportSelected Changed: 2024-09-11 10:17:35 AM, Old:Choice 0, New:Choice 1
ConcentrationReportSelected Changed: 2024-09-11 10:17:35 AM, Old:ON, New:Choice 0
MCAReportSelected Changed: 2024-09-11 10:17:35 AM, Old:Choice 0, New:Choice 1
MCAReportSelected Changed: 2024-09-11 10:17:35 AM, Old:ON, New:Choice 0
X Start nm Changed: 2024-09-11 10:27:39 AM, Old:800.000, New:1400.000
X Stop nm Changed: 2024-09-11 10:27:39 AM, Old:200.000, New:300.000
UVVIS Scan Rate nm Changed: 2024-09-11 10:27:39 AM, Old:  602.007, New:  600.000
NIR Scan Rate nm Changed: 2024-09-11 10:27:39 AM, Old:    0.004, New:   12.000
Common Interval nm Changed: 2024-09-11 10:27:39 AM, Old:    1.000, New:    0.667
Source changeover Changed: 2024-09-11 10:27:39 AM, Old:   350.00, New:   300.00
Detector changeover Changed: 2024-09-11 10:27:39 AM, Old:   800.00, New:   900.00
Grating changeover Changed: 2024-09-11 10:27:39 AM, Old:   800.00, New:   900.00
Baseline Correction Changed: 2024-09-11 10:27:39 AM, Old:0, New:2
Sipper Type Changed: 2024-09-11 10:27:39 AM, Old:Internal RSA, New:External sipper
End Method Modifications
<Current Wavelength> , 300.000
<SBW (nm)> , 2.00
<Energy> , 57.54
<Slit Height> , Full

t=24hrs FeCl3 20uM,
t=24hrs FeCl3 20uM
Collection Time: 2024-09-11 11:26:22 AM
Operator Name  :
Scan Version 6.4.0.1610
Parameter List :
Instrument  Cary 7000
Instrument Version  3.07
Method Log     :
Method Name    :
Date/Time stamp: 2024-09-11 10:17:34 AM
Method Modifications:
ConcentrationReportSelected Changed: 2024-09-11 10:17:35 AM, Old:Choice 0, New:Choice 1
ConcentrationReportSelected Changed: 2024-09-11 10:17:35 AM, Old:ON, New:Choice 0
MCAReportSelected Changed: 2024-09-11 10:17:35 AM, Old:Choice 0, New:Choice 1
MCAReportSelected Changed: 2024-09-11 10:17:35 AM, Old:ON, New:Choice 0
X Start nm Changed: 2024-09-11 10:27:39 AM, Old:800.000, New:1400.000
X Stop nm Changed: 2024-09-11 10:27:39 AM, Old:200.000, New:300.000
UVVIS Scan Rate nm Changed: 2024-09-11 10:27:39 AM, Old:  602.007, New:  600.000
NIR Scan Rate nm Changed: 2024-09-11 10:27:39 AM, Old:    0.004, New:   12.000
Common Interval nm Changed: 2024-09-11 10:27:39 AM, Old:    1.000, New:    0.667
Source changeover Changed: 2024-09-11 10:27:39 AM, Old:   350.00, New:   300.00
Detector changeover Changed: 2024-09-11 10:27:39 AM, Old:   800.00, New:   900.00
Grating changeover Changed: 2024-09-11 10:27:39 AM, Old:   800.00, New:   900.00
Baseline Correction Changed: 2024-09-11 10:27:39 AM, Old:0, New:2
Sipper Type Changed: 2024-09-11 10:27:39 AM, Old:Internal RSA, New:External sipper
End Method Modifications
<Current Wavelength> , 300.000
<SBW (nm)> , 2.00
<Energy> , 60.26
<Slit Height> , Full

t=24hrs FeCl3 50uM,
t=24hrs FeCl3 50uM
Collection Time: 2024-09-11 11:30:48 AM
Operator Name  :
Scan Version 6.4.0.1610
Parameter List :
Instrument  Cary 7000
Instrument Version  3.07
Method Log     :
Method Name    :
Date/Time stamp: 2024-09-11 10:17:34 AM
Method Modifications:
ConcentrationReportSelected Changed: 2024-09-11 10:17:35 AM, Old:Choice 0, New:Choice 1
ConcentrationReportSelected Changed: 2024-09-11 10:17:35 AM, Old:ON, New:Choice 0
MCAReportSelected Changed: 2024-09-11 10:17:35 AM, Old:Choice 0, New:Choice 1
MCAReportSelected Changed: 2024-09-11 10:17:35 AM, Old:ON, New:Choice 0
X Start nm Changed: 2024-09-11 10:27:39 AM, Old:800.000, New:1400.000
X Stop nm Changed: 2024-09-11 10:27:39 AM, Old:200.000, New:300.000
UVVIS Scan Rate nm Changed: 2024-09-11 10:27:39 AM, Old:  602.007, New:  600.000
NIR Scan Rate nm Changed: 2024-09-11 10:27:39 AM, Old:    0.004, New:   12.000
Common Interval nm Changed: 2024-09-11 10:27:39 AM, Old:    1.000, New:    0.667
Source changeover Changed: 2024-09-11 10:27:39 AM, Old:   350.00, New:   300.00
Detector changeover Changed: 2024-09-11 10:27:39 AM, Old:   800.00, New:   900.00
Grating changeover Changed: 2024-09-11 10:27:39 AM, Old:   800.00, New:   900.00
Baseline Correction Changed: 2024-09-11 10:27:39 AM, Old:0, New:2
Sipper Type Changed: 2024-09-11 10:27:39 AM, Old:Internal RSA, New:External sipper
End Method Modifications
<Current Wavelength> , 300.000
<SBW (nm)> , 2.00
<Energy> , 72.44
<Slit Height> , Full

t=24hrs FeCl3 100uM,
t=24hrs FeCl3 100uM
Collection Time: 2024-09-11 11:35:17 AM
Operator Name  :
Scan Version 6.4.0.1610
Parameter List :
Instrument  Cary 7000
Instrument Version  3.07
Method Log     :
Method Name    :
Date/Time stamp: 2024-09-11 10:17:34 AM
Method Modifications:
ConcentrationReportSelected Changed: 2024-09-11 10:17:35 AM, Old:Choice 0, New:Choice 1
ConcentrationReportSelected Changed: 2024-09-11 10:17:35 AM, Old:ON, New:Choice 0
MCAReportSelected Changed: 2024-09-11 10:17:35 AM, Old:Choice 0, New:Choice 1
MCAReportSelected Changed: 2024-09-11 10:17:35 AM, Old:ON, New:Choice 0
X Start nm Changed: 2024-09-11 10:27:39 AM, Old:800.000, New:1400.000
X Stop nm Changed: 2024-09-11 10:27:39 AM, Old:200.000, New:300.000
UVVIS Scan Rate nm Changed: 2024-09-11 10:27:39 AM, Old:  602.007, New:  600.000
NIR Scan Rate nm Changed: 2024-09-11 10:27:39 AM, Old:    0.004, New:   12.000
Common Interval nm Changed: 2024-09-11 10:27:39 AM, Old:    1.000, New:    0.667
Source changeover Changed: 2024-09-11 10:27:39 AM, Old:   350.00, New:   300.00
Detector changeover Changed: 2024-09-11 10:27:39 AM, Old:   800.00, New:   900.00
Grating changeover Changed: 2024-09-11 10:27:39 AM, Old:   800.00, New:   900.00
Baseline Correction Changed: 2024-09-11 10:27:39 AM, Old:0, New:2
Sipper Type Changed: 2024-09-11 10:27:39 AM, Old:Internal RSA, New:External sipper
End Method Modifications
<Current Wavelength> , 300.000
<SBW (nm)> , 2.00
<Energy> , 72.44
<Slit Height> , Full