File: UV-Vis data/2024_09/2024_09_11_imine polymer t=1hrs FeCl3 solution doping.csv
t=1hrs FeCl3 0uM,,t=1hrs FeCl3 5uM,,t=1hrs FeCl3 20uM,,t=1hrs FeCl3 50uM,,t=1hrs FeCl3 100uM,,
Wavelength (nm),Abs,Wavelength (nm),Abs,Wavelength (nm),Abs,Wavelength (nm),Abs,Wavelength (nm),Abs,
1400,0.00293277,1400,0.00399905,1400,0.00798524,1400,0.00449982,1400,0.00450199,
1390,-0.00148621,1390,-0.000855568,1390,2.30391e-05,1390,-0.000800639,1390,-0.000206159,
1380,-0.00164535,1380,-0.00124013,1380,-0.000545282,1380,-0.000983329,1380,-0.000418375,
1370,-0.00200098,1370,-0.00156865,1370,-0.00111012,1370,-0.00138796,1370,-0.000856446,
1360,-0.00200386,1360,-0.00161079,1360,-0.00139725,1360,-0.0014278,1360,-0.000994332,
1350,-0.0022082,1350,-0.00194604,1350,-0.00184233,1350,-0.00172663,1350,-0.00143894,
1340,-0.00245125,1340,-0.00206359,1340,-0.00215261,1340,-0.00192604,1340,-0.00158103,
1330,-0.00245352,1330,-0.00209373,1330,-0.0021896,1330,-0.00196882,1330,-0.00145644,
1320,-0.00248132,1320,-0.00210187,1320,-0.00226326,1320,-0.00194995,1320,-0.00153145,
1310,-0.00258328,1310,-0.00216364,1310,-0.00235338,1310,-0.00205024,1310,-0.00171703,
1300,-0.002526,1300,-0.00205756,1300,-0.00220521,1300,-0.00193877,1300,-0.00153703,
1290,-0.00262666,1290,-0.00209409,1290,-0.00215952,1290,-0.00198526,1290,-0.00158144,
1280,-0.00259074,1280,-0.00216173,1280,-0.00188119,1280,-0.00196562,1280,-0.00146,
1270,-0.00264673,1270,-0.00217987,1270,-0.00196397,1270,-0.00199376,1270,-0.00142295,
1260,-0.00263788,1260,-0.0021319,1260,-0.00210347,1260,-0.00193594,1260,-0.00140633,
1250,-0.00267498,1250,-0.00215741,1250,-0.00214314,1250,-0.00192367,1250,-0.0012469,
1240,-0.00265502,1240,-0.00214973,1240,-0.0021674,1240,-0.00197835,1240,-0.0012295,
1230,-0.00266613,1230,-0.00216317,1230,-0.00221051,1230,-0.00193547,1230,-0.00120911,
1220,-0.00263912,1220,-0.00215874,1220,-0.00223416,1220,-0.0018948,1220,-0.0012756,
1210,-0.00260196,1210,-0.00219321,1210,-0.00221046,1210,-0.00176128,1210,-0.0012615,
1200,-0.0025613,1200,-0.00223792,1200,-0.00216421,1200,-0.00177829,1200,-0.00117384,
1190,-0.00251225,1190,-0.00213757,1190,-0.00205833,1190,-0.00165773,1190,-0.000911678,
1180,-0.00250355,1180,-0.00218929,1180,-0.00202685,1180,-0.00156483,1180,-0.000864869,
1170,-0.00248816,1170,-0.00219068,1170,-0.00202906,1170,-0.00144607,1170,-0.000842909,
1160,-0.00246618,1160,-0.00209646,1160,-0.00194547,1160,-0.00131054,1160,-0.000868124,
1150,-0.00189929,1150,-0.00136107,1150,-0.0011187,1150,-0.000480643,1150,0.000277327,
1140,-0.00236208,1140,-0.00184465,1140,-0.00165701,1140,-0.000692725,1140,-0.000359045,
1130,-0.00238355,1130,-0.00176556,1130,-0.00162137,1130,-0.000506448,1130,1.41599e-05,
1120,-0.00247864,1120,-0.00183794,1120,-0.00166546,1120,-0.000772578,1120,5.69492e-07,
1110,-0.00253794,1110,-0.00183537,1110,-0.00169754,1110,-0.0010355,1110,-7.05077e-05,
1100,-0.00256964,1100,-0.00182748,1100,-0.00178443,1100,-0.00111539,1100,-0.000130497,
1090,-0.00257196,1090,-0.00180041,1090,-0.00179288,1090,-0.00116765,1090,-0.000167036,
1080,-0.00254185,1080,-0.00178835,1080,-0.0017868,1080,-0.00120973,1080,-0.000229341,
1070,-0.00247921,1070,-0.00173085,1070,-0.00176365,1070,-0.00105425,1070,-0.000380978,
1060,-0.00242845,1060,-0.00175375,1060,-0.00173776,1060,-0.000876701,1060,-0.000145403,
1050,-0.00235085,1050,-0.00160269,1050,-0.00171884,1050,-0.000907028,1050,0.000107466,
1040,-0.00239689,1040,-0.00169646,1040,-0.00180283,1040,-0.00085221,1040,-0.000283825,
1030,-0.00233618,1030,-0.00164494,1030,-0.00168181,1030,-0.00075082,1030,-0.000301933,
1020,-0.00238643,1020,-0.00165566,1020,-0.00166969,1020,-0.000679234,1020,-0.000410461,
1010,-0.00232135,1010,-0.00161616,1010,-0.00161069,1010,-0.000573099,1010,-0.000235085,
1000,-0.00226666,1000,-0.00170523,1000,-0.00159846,1000,-0.000484625,1000,-0.000133862,
990,-0.00226465,990,-0.00172632,990,-0.00147935,990,-0.000414495,990,-8.28343e-06,
980,-0.00220722,980,-0.00160821,980,-0.00124075,980,-0.000197362,980,0.000280798,
970,-0.00219841,970,-0.00167181,970,-0.00121711,970,-4.14174e-06,970,0.000439481,
960,-0.00207332,960,-0.00154399,960,-0.000839963,960,0.000397765,960,0.000885062,
950,-0.00199144,950,-0.00159619,950,-0.000676598,950,0.000475371,950,0.00108909,
940,-0.00202216,940,-0.00157102,940,-0.000467197,940,0.000701973,940,0.00136873,
930,-0.00191475,930,-0.00155462,930,-5.10441e-05,930,0.000996873,930,0.0017784,
920,-0.00186073,920,-0.00148239,920,0.000492268,920,0.00147419,920,0.00228401,
910,-0.00180412,910,-0.0014151,910,0.00103138,910,0.00198837,910,0.00285548,
900,-0.00183253,900,-0.00135761,900,0.00158509,900,0.00261293,900,0.00350582,
890,0.00072938,890,1.99327e-05,890,0.00465885,890,0.0048889,890,0.00621338,
880,-0.000225615,880,0.00178064,880,0.00535307,880,0.00591633,880,0.00849454,
870,0.000382945,870,0.000745379,870,0.0051734,870,0.00794024,870,0.00744797,
860,0.00088789,860,0.00163456,860,0.00811588,860,0.00987115,860,0.0103378,
850,0.000978634,850,0.00216113,850,0.00973138,850,0.0114678,850,0.0123098,
840,0.00139942,840,0.00251151,840,0.0114335,840,0.013615,840,0.0146949,
830,0.00140202,830,0.00261559,830,0.0132201,830,0.0156967,830,0.0169331,
820,0.00123447,820,0.00312434,820,0.0151829,820,0.0183544,820,0.0197458,
810,0.00125646,810,0.00314785,810,0.0172723,810,0.0211121,810,0.0229362,
800,0.000943403,800,0.00349055,800,0.0199993,800,0.0250434,800,0.0273396,
790,0.0010024,790,0.0041821,790,0.0231511,790,0.0304255,790,0.0327149,
780,0.00106107,780,0.00491678,780,0.02719,780,0.0367295,780,0.0396744,
770,0.00105902,770,0.00564241,770,0.0315888,770,0.0438253,770,0.0480998,
760,0.00113443,760,0.00684721,760,0.0372262,760,0.0529335,760,0.0588656,
750,0.00115732,750,0.00795002,750,0.0437481,750,0.0641118,750,0.0714818,
740,0.00121809,740,0.00958048,740,0.051735,740,0.0786166,740,0.086593,
730,0.0012042,730,0.0113821,730,0.0617024,730,0.096798,730,0.104978,
720,0.00131282,720,0.0137871,720,0.0737904,720,0.119898,720,0.127826,
710,0.00148165,710,0.0165827,710,0.0882783,710,0.148838,710,0.156414,
700,0.00164924,700,0.0198599,700,0.105129,700,0.183389,700,0.191639,
690,0.00177679,690,0.0235091,690,0.124225,690,0.223484,690,0.232712,
680,0.00210231,680,0.0277641,680,0.145533,680,0.268542,680,0.279241,
670,0.00230762,670,0.0323924,670,0.168383,670,0.318204,670,0.330435,
660,0.00211956,660,0.0367348,660,0.191942,660,0.370066,660,0.384223,
650,0.00216144,650,0.0415738,650,0.216456,650,0.424019,650,0.440184,
640,0.002360421,640,0.0467539,640,0.241115,640,0.478287,640,0.496131,
630,0.00248724,630,0.0516655,630,0.265899,630,0.532652,630,0.551392,
620,0.00278286,620,0.0567607,620,0.289854,620,0.586108,620,0.605297,
610,0.00314556,610,0.0614713,610,0.312792,610,0.637486,610,0.657611,
600,0.0038054,600,0.0658481,600,0.332959,600,0.684503,600,0.706181,
590,0.00500696,590,0.070283,590,0.349958,590,0.725077,590,0.74851,
580,0.00766185,580,0.0754973,580,0.363561,580,0.756198,580,0.780538,
570,0.0144498,570,0.0830367,570,0.373981,570,0.776115,570,0.800248,
560,0.0312453,560,0.0978809,560,0.382734,560,0.784286,560,0.807346,
550,0.0708789,550,0.128695,550,0.392742,550,0.781442,550,0.803844,
540,0.151303,540,0.189278,540,0.409391,540,0.769075,540,0.79078,
530,0.276821,530,0.284202,530,0.435978,530,0.747875,530,0.767956,
520,0.424249,520,0.398202,520,0.469544,520,0.718215,520,0.735478,
510,0.563476,510,0.508858,510,0.503372,510,0.681238,510,0.694786,
500,0.691555,500,0.612897,500,0.535116,500,0.638229,500,0.647744,
490,0.804726,490,0.707482,490,0.564467,490,0.59141,490,0.596507,
480,0.882979,480,0.777563,480,0.587341,480,0.543235,480,0.543032,
470,0.914548,470,0.81198,470,0.599019,470,0.497231,470,0.491038,
460,0.90854,460,0.815941,460,0.600164,460,0.456681,460,0.445033,
450,0.872981,450,0.795795,450,0.593539,450,0.425114,450,0.409642,
440,0.812897,440,0.754073,440,0.580481,440,0.405084,440,0.387228,
430,0.741241,430,0.70092,430,0.56423,430,0.398847,430,0.381453,
420,0.668972,420,0.645152,420,0.547586,420,0.405686,420,0.394126,
410,0.604,410,0.594291,410,0.533678,410,0.425306,410,0.428514,
400,0.554472,400,0.556157,400,0.526434,400,0.455176,400,0.480822,
390,0.528988,390,0.539359,390,0.531609,390,0.492788,390,0.543882,
380,0.540721,380,0.555348,380,0.556738,380,0.53864,380,0.617931,
370,0.595971,370,0.60872,370,0.604296,370,0.583574,370,0.692738,
360,0.647018,360,0.654685,360,0.637793,360,0.600547,360,0.752805,
350,0.646215,350,0.64782,350,0.616179,350,0.58352,350,0.813655,
340,0.595716,340,0.596725,340,0.567759,340,0.528105,340,0.755304,
330,0.497613,330,0.50414,330,0.501907,330,0.529492,330,0.770515,
320,0.38692,320,0.401473,320,0.429491,320,0.500748,320,0.695276,
310,0.289425,310,0.307526,310,0.351828,310,0.44588,310,0.613856,
300,0.222243,300,0.238862,300,0.284874,300,0.368685,300,0.511714,

t=1hrs FeCl3 0uM,
t=1hrs FeCl3 0uM
Collection Time: 2024-09-11 11:41:48 AM
Operator Name  :
Scan Version 6.4.0.1610
Parameter List :
Instrument  Cary 7000
Instrument Version  3.07
Method Log     :
Method Name    :
Date/Time stamp: 2024-09-11 10:17:34 AM
Method Modifications:
ConcentrationReportSelected Changed: 2024-09-11 10:17:35 AM, Old:Choice 0, New:Choice 1
ConcentrationReportSelected Changed: 2024-09-11 10:17:35 AM, Old:ON, New:Choice 0
MCAReportSelected Changed: 2024-09-11 10:17:35 AM, Old:Choice 0, New:Choice 1
MCAReportSelected Changed: 2024-09-11 10:17:35 AM, Old:ON, New:Choice 0
X Start nm Changed: 2024-09-11 10:27:39 AM, Old:800.000, New:1400.000
X Stop nm Changed: 2024-09-11 10:27:39 AM, Old:200.000, New:300.000
UVVIS Scan Rate nm Changed: 2024-09-11 10:27:39 AM, Old:  602.007, New:  600.000
NIR Scan Rate nm Changed: 2024-09-11 10:27:39 AM, Old:    0.004, New:   12.000
Common Interval nm Changed: 2024-09-11 10:27:39 AM, Old:    1.000, New:    0.667
Source changeover Changed: 2024-09-11 10:27:39 AM, Old:   350.00, New:   300.00
Detector changeover Changed: 2024-09-11 10:27:39 AM, Old:   800.00, New:   900.00
Grating changeover Changed: 2024-09-11 10:27:39 AM, Old:   800.00, New:   900.00
Baseline Correction Changed: 2024-09-11 10:27:39 AM, Old:0, New:2
Sipper Type Changed: 2024-09-11 10:27:39 AM, Old:Internal RSA, New:External sipper
End Method Modifications
<Current Wavelength> , 300.000
<SBW (nm)> , 2.00
<Energy> , 57.54
<Slit Height> , Full

t=1hrs FeCl3 5uM,
t=1hrs FeCl3 5uM
Collection Time: 2024-09-11 11:48:44 AM
Operator Name  :
Scan Version 6.4.0.1610
Parameter List :
Instrument  Cary 7000
Instrument Version  3.07
Method Log     :
Method Name    :
Date/Time stamp: 2024-09-11 10:17:34 AM
Method Modifications:
ConcentrationReportSelected Changed: 2024-09-11 10:17:35 AM, Old:Choice 0, New:Choice 1
ConcentrationReportSelected Changed: 2024-09-11 10:17:35 AM, Old:ON, New:Choice 0
MCAReportSelected Changed: 2024-09-11 10:17:35 AM, Old:Choice 0, New:Choice 1
MCAReportSelected Changed: 2024-09-11 10:17:35 AM, Old:ON, New:Choice 0
X Start nm Changed: 2024-09-11 10:27:39 AM, Old:800.000, New:1400.000
X Stop nm Changed: 2024-09-11 10:27:39 AM, Old:200.000, New:300.000
UVVIS Scan Rate nm Changed: 2024-09-11 10:27:39 AM, Old:  602.007, New:  600.000
NIR Scan Rate nm Changed: 2024-09-11 10:27:39 AM, Old:    0.004, New:   12.000
Common Interval nm Changed: 2024-09-11 10:27:39 AM, Old:    1.000, New:    0.667
Source changeover Changed: 2024-09-11 10:27:39 AM, Old:   350.00, New:   300.00
Detector changeover Changed: 2024-09-11 10:27:39 AM, Old:   800.00, New:   900.00
Grating changeover Changed: 2024-09-11 10:27:39 AM, Old:   800.00, New:   900.00
Baseline Correction Changed: 2024-09-11 10:27:39 AM, Old:0, New:2
Sipper Type Changed: 2024-09-11 10:27:39 AM, Old:Internal RSA, New:External sipper
End Method Modifications
<Current Wavelength> , 300.000
<SBW (nm)> , 2.00
<Energy> , 60.26
<Slit Height> , Full

t=1hrs FeCl3 20uM,
t=1hrs FeCl3 20uM
Collection Time: 2024-09-11 11:53:15 AM
Operator Name  :
Scan Version 6.4.0.1610
Parameter List :
Instrument  Cary 7000
Instrument Version  3.07
Method Log     :
Method Name    :
Date/Time stamp: 2024-09-11 10:17:34 AM
Method Modifications:
ConcentrationReportSelected Changed: 2024-09-11 10:17:35 AM, Old:Choice 0, New:Choice 1
ConcentrationReportSelected Changed: 2024-09-11 10:17:35 AM, Old:ON, New:Choice 0
MCAReportSelected Changed: 2024-09-11 10:17:35 AM, Old:Choice 0, New:Choice 1
MCAReportSelected Changed: 2024-09-11 10:17:35 AM, Old:ON, New:Choice 0
X Start nm Changed: 2024-09-11 10:27:39 AM, Old:800.000, New:1400.000
X Stop nm Changed: 2024-09-11 10:27:39 AM, Old:200.000, New:300.000
UVVIS Scan Rate nm Changed: 2024-09-11 10:27:39 AM, Old:  602.007, New:  600.000
NIR Scan Rate nm Changed: 2024-09-11 10:27:39 AM, Old:    0.004, New:   12.000
Common Interval nm Changed: 2024-09-11 10:27:39 AM, Old:    1.000, New:    0.667
Source changeover Changed: 2024-09-11 10:27:39 AM, Old:   350.00, New:   300.00
Detector changeover Changed: 2024-09-11 10:27:39 AM, Old:   800.00, New:   900.00
Grating changeover Changed: 2024-09-11 10:27:39 AM, Old:   800.00, New:   900.00
Baseline Correction Changed: 2024-09-11 10:27:39 AM, Old:0, New:2
Sipper Type Changed: 2024-09-11 10:27:39 AM, Old:Internal RSA, New:External sipper
End Method Modifications
<Current Wavelength> , 300.000
<SBW (nm)> , 2.00
<Energy> , 63.10
<Slit Height> , Full

t=1hrs FeCl3 50uM,
t=1hrs FeCl3 50uM
Collection Time: 2024-09-11 11:57:42 AM
Operator Name  :
Scan Version 6.4.0.1610
Parameter List :
Instrument  Cary 7000
Instrument Version  3.07
Method Log     :
Method Name    :
Date/Time stamp: 2024-09-11 10:17:34 AM
Method Modifications:
ConcentrationReportSelected Changed: 2024-09-11 10:17:35 AM, Old:Choice 0, New:Choice 1
ConcentrationReportSelected Changed: 2024-09-11 10:17:35 AM, Old:ON, New:Choice 0
MCAReportSelected Changed: 2024-09-11 10:17:35 AM, Old:Choice 0, New:Choice 1
MCAReportSelected Changed: 2024-09-11 10:17:35 AM, Old:ON, New:Choice 0
X Start nm Changed: 2024-09-11 10:27:39 AM, Old:800.000, New:1400.000
X Stop nm Changed: 2024-09-11 10:27:39 AM, Old:200.000, New:300.000
UVVIS Scan Rate nm Changed: 2024-09-11 10:27:39 AM, Old:  602.007, New:  600.000
NIR Scan Rate nm Changed: 2024-09-11 10:27:39 AM, Old:    0.004, New:   12.000
Common Interval nm Changed: 2024-09-11 10:27:39 AM, Old:    1.000, New:    0.667
Source changeover Changed: 2024-09-11 10:27:39 AM, Old:   350.00, New:   300.00
Detector changeover Changed: 2024-09-11 10:27:39 AM, Old:   800.00, New:   900.00
Grating changeover Changed: 2024-09-11 10:27:39 AM, Old:   800.00, New:   900.00
Baseline Correction Changed: 2024-09-11 10:27:39 AM, Old:0, New:2
Sipper Type Changed: 2024-09-11 10:27:39 AM, Old:Internal RSA, New:External sipper
End Method Modifications
<Current Wavelength> , 300.000
<SBW (nm)> , 2.00
<Energy> , 72.44
<Slit Height> , Full

t=1hrs FeCl3 100uM,
t=1hrs FeCl3 100uM
Collection Time: 2024-09-11 12:04:35 PM
Operator Name  :
Scan Version 6.4.0.1610
Parameter List :
Instrument  Cary 7000
Instrument Version  3.07
Method Log     :
Method Name    :
Date/Time stamp: 2024-09-11 10:17:34 AM
Method Modifications:
ConcentrationReportSelected Changed: 2024-09-11 10:17:35 AM, Old:Choice 0, New:Choice 1
ConcentrationReportSelected Changed: 2024-09-11 10:17:35 AM, Old:ON, New:Choice 0
MCAReportSelected Changed: 2024-09-11 10:17:35 AM, Old:Choice 0, New:Choice 1
MCAReportSelected Changed: 2024-09-11 10:17:35 AM, Old:ON, New:Choice 0
X Start nm Changed: 2024-09-11 10:27:39 AM, Old:800.000, New:1400.000
X Stop nm Changed: 2024-09-11 10:27:39 AM, Old:200.000, New:300.000
UVVIS Scan Rate nm Changed: 2024-09-11 10:27:39 AM, Old:  602.007, New:  600.000
NIR Scan Rate nm Changed: 2024-09-11 10:27:39 AM, Old:    0.004, New:   12.000
Common Interval nm Changed: 2024-09-11 10:27:39 AM, Old:    1.000, New:    0.667
Source changeover Changed: 2024-09-11 10:27:39 AM, Old:   350.00, New:   300.00
Detector changeover Changed: 2024-09-11 10:27:39 AM, Old:   800.00, New:   900.00
Grating changeover Changed: 2024-09-11 10:27:39 AM, Old:   800.00, New:   900.00
Baseline Correction Changed: 2024-09-11 10:27:39 AM, Old:0, New:2
Sipper Type Changed: 2024-09-11 10:27:39 AM, Old:Internal RSA, New:External sipper
End Method Modifications
<Current Wavelength> , 300.000
<SBW (nm)> , 2.00
<Energy> , 72.44
<Slit Height> , Full