File: UV-Vis data/2024_09/2024_09_03_non-imine FeCl3 doping.csv
non-imine undoped,,non-imine 1 min FeCl3 doping,,non-imine 10 min FeCl3,,non-imine 30 min FeCl3 doping,,non-imine polymer 1 hour FeCl3,,
Wavelength (nm),Abs,Wavelength (nm),Abs,Wavelength (nm),Abs,Wavelength (nm),Abs,Wavelength (nm),Abs,
1200,-0.0142374,1200,-0.014806,1200,-0.0201129,1200,-0.0118565,1200,-0.0140559,
1192,-0.0143589,1192,-0.0146512,1192,-0.0201769,1192,-0.0118873,1192,-0.0141299,
1184,-0.0144859,1184,-0.0149779,1184,-0.0203015,1184,-0.0119831,1184,-0.0144396,
1176,-0.0142124,1176,-0.0144584,1176,-0.019993,1176,-0.0116381,1176,-0.0141748,
1168,-0.0140567,1168,-0.0146157,1168,-0.0202303,1168,-0.0119362,1168,-0.0141761,
1160,-0.0140562,1160,-0.0145577,1160,-0.0199572,1160,-0.0116526,1160,-0.0141232,
1152,-0.0139995,1152,-0.0144993,1152,-0.0197469,1152,-0.0115667,1152,-0.0141523,
1144,-0.0142285,1144,-0.0146191,1144,-0.0202361,1144,-0.0118741,1144,-0.0142835,
1136,-0.0140725,1136,-0.0144768,1136,-0.0198246,1136,-0.011619,1136,-0.0140421,
1128,-0.0139429,1128,-0.0144968,1128,-0.0197992,1128,-0.0114384,1128,-0.0140094,
1120,-0.0140487,1120,-0.0145682,1120,-0.0197557,1120,-0.0115299,1120,-0.0139276,
1112,-0.0139292,1112,-0.0145418,1112,-0.019807,1112,-0.0114859,1112,-0.0140708,
1104,-0.0140203,1104,-0.0146703,1104,-0.0198536,1104,-0.0116466,1104,-0.0141742,
1096,-0.0139191,1096,-0.0145286,1096,-0.0195807,1096,-0.0114219,1096,-0.0139227,
1088,-0.0140234,1088,-0.0146074,1088,-0.0198046,1088,-0.0114186,1088,-0.0141858,
1080,-0.0138948,1080,-0.0143646,1080,-0.0196168,1080,-0.0111741,1080,-0.0138813,
1072,-0.0137578,1072,-0.0144586,1072,-0.0194641,1072,-0.0111931,1072,-0.0139245,
1064,-0.0138109,1064,-0.0142659,1064,-0.0194844,1064,-0.0112064,1064,-0.0137361,
1056,-0.0136473,1056,-0.0143372,1056,-0.0194252,1056,-0.0111465,1056,-0.0137802,
1048,-0.0137284,1048,-0.0143197,1048,-0.019416,1048,-0.0112381,1048,-0.0136621,
1040,-0.0135388,1040,-0.0141751,1040,-0.0192189,1040,-0.0111378,1040,-0.0136484,
1032,-0.0135152,1032,-0.0140808,1032,-0.0192438,1032,-0.0109328,1032,-0.0136385,
1024,-0.0135995,1024,-0.0140905,1024,-0.0193518,1024,-0.0108866,1024,-0.0135814,
1016,-0.0136214,1016,-0.0139566,1016,-0.019199,1016,-0.0109972,1016,-0.0135657,
1008,-0.0132476,1008,-0.0139359,1008,-0.0191519,1008,-0.0109261,1008,-0.0136028,
1000,-0.0133998,1000,-0.0138525,1000,-0.0190432,1000,-0.0108413,1000,-0.0135524,
992,-0.0134921,992,-0.0141494,992,-0.0192843,992,-0.0110626,992,-0.0137883,
984,-0.0134544,984,-0.0139587,984,-0.0190944,984,-0.0109846,984,-0.0135745,
976,-0.0133315,976,-0.0137907,976,-0.0189793,976,-0.0110887,976,-0.0134165,
968,-0.0134566,968,-0.0141041,968,-0.0190874,968,-0.0109894,968,-0.01369,
960,-0.0133044,960,-0.0137749,960,-0.0189897,960,-0.0107257,960,-0.0134506,
952,-0.0134163,952,-0.0139149,952,-0.0189171,952,-0.0109525,952,-0.013604,
944,-0.0132364,944,-0.0138054,944,-0.0188943,944,-0.0110148,944,-0.0134191,
936,-0.0133307,936,-0.0136385,936,-0.0188478,936,-0.0110705,936,-0.0133846,
928,-0.0129829,928,-0.0137385,928,-0.0188605,928,-0.0110447,928,-0.0135592,
920,-0.0131624,920,-0.013686,920,-0.0187546,920,-0.0109788,920,-0.0136326,
912,-0.013083,912,-0.0137265,912,-0.0188631,912,-0.0111893,912,-0.0137317,
904,-0.0131443,904,-0.0137355,904,-0.0187157,904,-0.011265,904,-0.0135194,
896,-0.0111034,896,-0.0232589,896,-0.0245071,896,-0.0140329,896,-0.0200439,
888,-0.0143469,888,-0.0179726,888,-0.024537,888,-0.020132,888,-0.0191619,
880,-0.0177471,880,-0.0176408,880,-0.0236694,880,-0.0168796,880,-0.0207125,
872,-0.0174057,872,-0.0210024,872,-0.0261042,872,-0.0188277,872,-0.019035,
864,-0.0135151,864,-0.0169952,864,-0.0213416,864,-0.0166919,864,-0.0187885,
856,-0.0169501,856,-0.0185756,856,-0.0246995,856,-0.0164771,856,-0.0201786,
848,-0.0150008,848,-0.0173168,848,-0.0231765,848,-0.0152831,848,-0.0187532,
840,-0.0140396,840,-0.016959,840,-0.0237844,840,-0.0150289,840,-0.0185496,
832,-0.0147009,832,-0.0171987,832,-0.0233291,832,-0.0153666,832,-0.0189825,
824,-0.0151342,824,-0.0179083,824,-0.0238073,824,-0.0160652,824,-0.0197499,
816,-0.0152208,816,-0.0179479,816,-0.0248661,816,-0.0163503,816,-0.0199879,
808,-0.0156343,808,-0.018098,808,-0.0246821,808,-0.0166823,808,-0.0201508,
800,-0.0151031,800,-0.0177843,800,-0.0244551,800,-0.0163264,800,-0.0196447,
792,-0.015143,792,-0.0175325,792,-0.0241215,792,-0.0161944,792,-0.0197745,
784,-0.0149007,784,-0.0176911,784,-0.0246643,784,-0.0163621,784,-0.0200862,
776,-0.0150504,776,-0.0176153,776,-0.0243195,776,-0.0164018,776,-0.0200651,
768,-0.0147478,768,-0.0174188,768,-0.0239006,768,-0.0159434,768,-0.0193788,
760,-0.0148607,760,-0.0173575,760,-0.0243701,760,-0.0160217,760,-0.0197176,
752,-0.0146736,752,-0.0174193,752,-0.0242899,752,-0.0162729,752,-0.0196516,
744,-0.0146124,744,-0.0172335,744,-0.0240805,744,-0.0161405,744,-0.0196397,
736,-0.0142801,736,-0.0170672,736,-0.0239338,736,-0.0159014,736,-0.0196748,
728,-0.0140668,728,-0.0168855,728,-0.0239147,728,-0.0156312,728,-0.0195188,
720,-0.0143125,720,-0.0169846,720,-0.0236336,720,-0.0158844,720,-0.0196928,
712,-0.0142604,712,-0.016838,712,-0.0240235,712,-0.0158738,712,-0.0197284,
704,-0.0139836,704,-0.0169037,704,-0.023777,704,-0.0158316,704,-0.019566,
696,-0.0137427,696,-0.0165381,696,-0.0234825,696,-0.0155861,696,-0.0195114,
688,-0.0136807,688,-0.0166662,688,-0.0234564,688,-0.0154645,688,-0.0193115,
680,-0.0133436,680,-0.016391,680,-0.0232372,680,-0.0152579,680,-0.0192211,
672,-0.0134828,672,-0.0163419,672,-0.0233533,672,-0.0153212,672,-0.0193586,
664,-0.0132113,664,-0.0163582,664,-0.0232967,664,-0.0152666,664,-0.0191601,
656,-0.012936,656,-0.0160929,656,-0.0232691,656,-0.0152527,656,-0.0189958,
648,-0.0131005,648,-0.0164276,648,-0.0237459,648,-0.0156933,648,-0.0192591,
640,-0.0129867,640,-0.0164302,640,-0.0237233,640,-0.0158604,640,-0.0191788,
632,-0.0123317,632,-0.0159273,632,-0.0234143,632,-0.0153672,632,-0.0188642,
624,-0.0114157,624,-0.0150279,624,-0.0224803,624,-0.0142878,624,-0.0180548,
616,-0.00983388,616,-0.0136915,616,-0.0209962,616,-0.0129017,616,-0.0169455,
608,-0.00748284,608,-0.0118729,608,-0.0191939,608,-0.0108956,608,-0.0150768,
600,-0.0047628,600,-0.00988515,600,-0.0175759,600,-0.00930658,600,-0.0135225,
592,-0.000394995,592,-0.00645221,592,-0.0147986,592,-0.0062291,592,-0.0109907,
584,0.00599286,584,-0.00108621,584,-0.00971908,584,-0.00101179,584,-0.00682625,
576,0.0137084,576,0.00529434,576,-0.00339433,576,0.0055073,576,-0.00171482,
568,0.0221136,568,0.0125767,568,0.00372832,568,0.0132009,568,0.00455185,
560,0.031182,560,0.0206565,560,0.0119008,560,0.0217923,560,0.011381,
552,0.0404468,552,0.0292671,552,0.0203744,552,0.0311457,552,0.0189159,
544,0.050581,544,0.0388218,544,0.0300439,544,0.0411791,544,0.0275356,
536,0.0600485,536,0.0477107,536,0.0387488,536,0.0506016,536,0.0355138,
528,0.069119,528,0.0564849,528,0.0474366,528,0.0598939,528,0.0436056,
520,0.0773222,520,0.0647775,520,0.0556009,520,0.0688518,520,0.0515719,
512,0.0843736,512,0.0721032,512,0.0630678,512,0.0766172,512,0.0588927,
504,0.09035,504,0.0785326,504,0.0696383,504,0.0838465,504,0.0657776,
496,0.095187,496,0.0839508,496,0.0752323,496,0.0897488,496,0.071606,
488,0.0985657,488,0.08786,488,0.0794702,488,0.0942968,488,0.0766108,
480,0.100461,480,0.0905814,480,0.0822623,480,0.0973306,480,0.0802733,
472,0.100867,472,0.0918528,472,0.0838886,472,0.0990907,472,0.0827451,
464,0.09972,464,0.0915707,464,0.08398,464,0.0992701,464,0.0840252,
456,0.0966592,456,0.0893214,456,0.0821136,456,0.0973927,456,0.0831438,
448,0.0925224,448,0.0858085,448,0.0790009,448,0.0938512,448,0.0810721,
440,0.0874486,440,0.0814525,440,0.0748257,440,0.0896175,440,0.0780127,
432,0.08122,432,0.0759107,432,0.0697601,432,0.0840535,432,0.0734562,
424,0.0743858,424,0.0694065,424,0.0637316,424,0.077614,424,0.0680899,
416,0.067105,416,0.0626612,416,0.0573123,416,0.070536,416,0.0621817,
408,0.0603541,408,0.0560903,408,0.0509075,408,0.0637862,408,0.0561007,
400,0.0538681,400,0.0495519,400,0.0448332,400,0.0573852,400,0.0502659,
392,0.0475882,392,0.043588,392,0.0389561,392,0.050769,392,0.0446423,
384,0.0419584,384,0.0383983,384,0.0337345,384,0.0451393,384,0.0393351,
376,0.0373816,376,0.0339557,376,0.029613,376,0.0405159,376,0.0348927,
368,0.0331707,368,0.0302214,368,0.0257767,368,0.0367708,368,0.0311576,
360,0.0297489,360,0.0268736,360,0.0223744,360,0.0332446,360,0.0277414,
352,0.0263947,352,0.0240791,352,0.0195025,352,0.0303165,352,0.0250499,
344,0.0235337,344,0.0214288,344,0.0172133,344,0.0276855,344,0.022417,
336,0.0217261,336,0.0198411,336,0.0161166,336,0.0259844,336,0.0211686,
328,0.0190915,328,0.0173391,328,0.0134342,328,0.0234824,328,0.0185306,
320,0.0168164,320,0.0156308,320,0.012097,320,0.0222537,320,0.0171469,
312,0.0152853,312,0.0138649,312,0.0102684,312,0.0203109,312,0.0148919,
304,0.0129704,304,0.0116346,304,0.00784091,304,0.0178964,304,0.0131663,
300.667,0.0125201,300.667,0.0113555,300.667,0.00729152,300.667,0.0175761,300.667,0.0127556,

non-imine undoped,
non-imine undoped
Collection Time: 2024-09-03 1:37:58 PM
Operator Name  :
Scan Version 6.4.0.1610
Parameter List :
Instrument  Cary 7000
Instrument Version  3.07
Method Log     :
Method Name    :
Date/Time stamp: 2024-09-03 1:29:02 PM
Method Modifications:
ConcentrationReportSelected Changed: 2024-09-03 1:29:03 PM, Old:Choice 0, New:Choice 1
ConcentrationReportSelected Changed: 2024-09-03 1:29:03 PM, Old:ON, New:Choice 0
MCAReportSelected Changed: 2024-09-03 1:29:03 PM, Old:Choice 0, New:Choice 1
MCAReportSelected Changed: 2024-09-03 1:29:03 PM, Old:ON, New:Choice 0
X Start nm Changed: 2024-09-03 1:30:02 PM, Old:800.000, New:1200.000
X Stop nm Changed: 2024-09-03 1:30:02 PM, Old:200.000, New:300.000
UVVIS Scan Rate nm Changed: 2024-09-03 1:30:02 PM, Old:  602.007, New:  600.000
NIR Scan Rate nm Changed: 2024-09-03 1:30:02 PM, Old:    0.004, New:   12.000
Common Interval nm Changed: 2024-09-03 1:30:02 PM, Old:    1.000, New:    0.667
Source changeover Changed: 2024-09-03 1:30:02 PM, Old:   350.00, New:   300.00
Detector changeover Changed: 2024-09-03 1:30:02 PM, Old:   800.00, New:   900.00
Grating changeover Changed: 2024-09-03 1:30:02 PM, Old:   800.00, New:   900.00
Baseline Correction Changed: 2024-09-03 1:30:02 PM, Old:0, New:2
Sipper Type Changed: 2024-09-03 1:30:02 PM, Old:Internal RSA, New:External sipper
End Method Modifications
<Current Wavelength> , 299.333
<SBW (nm)> , 2.00
<Energy> , 87.10
<Slit Height> , Full

non-imine 1 min FeCl3 doping,
non-imine 1 min FeCl3 doping
Collection Time: 2024-09-03 2:04:55 PM
Operator Name  :
Scan Version 6.4.0.1610
Parameter List :
Instrument  Cary 7000
Instrument Version  3.07
Method Log     :
Method Name    :
Date/Time stamp: 2024-09-03 1:29:02 PM
Method Modifications:
ConcentrationReportSelected Changed: 2024-09-03 1:29:03 PM, Old:Choice 0, New:Choice 1
ConcentrationReportSelected Changed: 2024-09-03 1:29:03 PM, Old:ON, New:Choice 0
MCAReportSelected Changed: 2024-09-03 1:29:03 PM, Old:Choice 0, New:Choice 1
MCAReportSelected Changed: 2024-09-03 1:29:03 PM, Old:ON, New:Choice 0
X Start nm Changed: 2024-09-03 1:30:02 PM, Old:800.000, New:1200.000
X Stop nm Changed: 2024-09-03 1:30:02 PM, Old:200.000, New:300.000
UVVIS Scan Rate nm Changed: 2024-09-03 1:30:02 PM, Old:  602.007, New:  600.000
NIR Scan Rate nm Changed: 2024-09-03 1:30:02 PM, Old:    0.004, New:   12.000
Common Interval nm Changed: 2024-09-03 1:30:02 PM, Old:    1.000, New:    0.667
Source changeover Changed: 2024-09-03 1:30:02 PM, Old:   350.00, New:   300.00
Detector changeover Changed: 2024-09-03 1:30:02 PM, Old:   800.00, New:   900.00
Grating changeover Changed: 2024-09-03 1:30:02 PM, Old:   800.00, New:   900.00
Baseline Correction Changed: 2024-09-03 1:30:02 PM, Old:0, New:2
Sipper Type Changed: 2024-09-03 1:30:02 PM, Old:Internal RSA, New:External sipper
End Method Modifications
<Current Wavelength> , 300.000
<SBW (nm)> , 2.00
<Energy> , 87.10
<Slit Height> , Full

non-imine 10 min FeCl3,
non-imine 10 min FeCl3
Collection Time: 2024-09-03 2:51:43 PM
Operator Name  :
Scan Version 6.4.0.1610
Parameter List :
Instrument  Cary 7000
Instrument Version  3.07
Method Log     :
Method Name    :
Date/Time stamp: 2024-09-03 1:29:02 PM
Method Modifications:
ConcentrationReportSelected Changed: 2024-09-03 1:29:03 PM, Old:Choice 0, New:Choice 1
ConcentrationReportSelected Changed: 2024-09-03 1:29:03 PM, Old:ON, New:Choice 0
MCAReportSelected Changed: 2024-09-03 1:29:03 PM, Old:Choice 0, New:Choice 1
MCAReportSelected Changed: 2024-09-03 1:29:03 PM, Old:ON, New:Choice 0
X Start nm Changed: 2024-09-03 1:30:02 PM, Old:800.000, New:1200.000
X Stop nm Changed: 2024-09-03 1:30:02 PM, Old:200.000, New:300.000
UVVIS Scan Rate nm Changed: 2024-09-03 1:30:02 PM, Old:  602.007, New:  600.000
NIR Scan Rate nm Changed: 2024-09-03 1:30:02 PM, Old:    0.004, New:   12.000
Common Interval nm Changed: 2024-09-03 1:30:02 PM, Old:    1.000, New:    0.667
Source changeover Changed: 2024-09-03 1:30:02 PM, Old:   350.00, New:   300.00
Detector changeover Changed: 2024-09-03 1:30:02 PM, Old:   800.00, New:   900.00
Grating changeover Changed: 2024-09-03 1:30:02 PM, Old:   800.00, New:   900.00
Baseline Correction Changed: 2024-09-03 1:30:02 PM, Old:0, New:2
Sipper Type Changed: 2024-09-03 1:30:02 PM, Old:Internal RSA, New:External sipper
End Method Modifications
<Current Wavelength> , 300.000
<SBW (nm)> , 2.00
<Energy> , 87.10
<Slit Height> , Full

non-imine 30 min FeCl3 doping,
non-imine 30 min FeCl3 doping
Collection Time: 2024-09-03 3:26:16 PM
Operator Name  :
Scan Version 6.4.0.1610
Parameter List :
Instrument  Cary 7000
Instrument Version  3.07
Method Log     :
Method Name    :
Date/Time stamp: 2024-09-03 1:29:02 PM
Method Modifications:
ConcentrationReportSelected Changed: 2024-09-03 1:29:03 PM, Old:Choice 0, New:Choice 1
ConcentrationReportSelected Changed: 2024-09-03 1:29:03 PM, Old:ON, New:Choice 0
MCAReportSelected Changed: 2024-09-03 1:29:03 PM, Old:Choice 0, New:Choice 1
MCAReportSelected Changed: 2024-09-03 1:29:03 PM, Old:ON, New:Choice 0
X Start nm Changed: 2024-09-03 1:30:02 PM, Old:800.000, New:1200.000
X Stop nm Changed: 2024-09-03 1:30:02 PM, Old:200.000, New:300.000
UVVIS Scan Rate nm Changed: 2024-09-03 1:30:02 PM, Old:  602.007, New:  600.000
NIR Scan Rate nm Changed: 2024-09-03 1:30:02 PM, Old:    0.004, New:   12.000
Common Interval nm Changed: 2024-09-03 1:30:02 PM, Old:    1.000, New:    0.667
Source changeover Changed: 2024-09-03 1:30:02 PM, Old:   350.00, New:   300.00
Detector changeover Changed: 2024-09-03 1:30:02 PM, Old:   800.00, New:   900.00
Grating changeover Changed: 2024-09-03 1:30:02 PM, Old:   800.00, New:   900.00
Baseline Correction Changed: 2024-09-03 1:30:02 PM, Old:0, New:2
Sipper Type Changed: 2024-09-03 1:30:02 PM, Old:Internal RSA, New:External sipper
End Method Modifications
<Current Wavelength> , 300.000
<SBW (nm)> , 2.00
<Energy> , 91.20
<Slit Height> , Full

non-imine polymer 1 hour FeCl3,
non-imine polymer 1 hour FeCl3
Collection Time: 2024-09-03 4:30:41 PM
Operator Name  :
Scan Version 6.4.0.1610
Parameter List :
Instrument  Cary 7000
Instrument Version  3.07
Method Log     :
Method Name    :
Date/Time stamp: 2024-09-03 1:29:02 PM
Method Modifications:
ConcentrationReportSelected Changed: 2024-09-03 1:29:03 PM, Old:Choice 0, New:Choice 1
ConcentrationReportSelected Changed: 2024-09-03 1:29:03 PM, Old:ON, New:Choice 0
MCAReportSelected Changed: 2024-09-03 1:29:03 PM, Old:Choice 0, New:Choice 1
MCAReportSelected Changed: 2024-09-03 1:29:03 PM, Old:ON, New:Choice 0
X Start nm Changed: 2024-09-03 1:30:02 PM, Old:800.000, New:1200.000
X Stop nm Changed: 2024-09-03 1:30:02 PM, Old:200.000, New:300.000
UVVIS Scan Rate nm Changed: 2024-09-03 1:30:02 PM, Old:  602.007, New:  600.000
NIR Scan Rate nm Changed: 2024-09-03 1:30:02 PM, Old:    0.004, New:   12.000
Common Interval nm Changed: 2024-09-03 1:30:02 PM, Old:    1.000, New:    0.667
Source changeover Changed: 2024-09-03 1:30:02 PM, Old:   350.00, New:   300.00
Detector changeover Changed: 2024-09-03 1:30:02 PM, Old:   800.00, New:   900.00
Grating changeover Changed: 2024-09-03 1:30:02 PM, Old:   800.00, New:   900.00
Baseline Correction Changed: 2024-09-03 1:30:02 PM, Old:0, New:2
Sipper Type Changed: 2024-09-03 1:30:02 PM, Old:Internal RSA, New:External sipper
End Method Modifications
<Current Wavelength> , 300.000
<SBW (nm)> , 2.00
<Energy> , 87.10
<Slit Height> , Full