File: UV-Vis data/2024_09/2024_09_03_imine FeCl3 doping.csv
imine undoped,,imine 1 min FeCl3 doping,,imine 10 min FeCl3,,imine 30 min FeCl3 doping,,imine polymer 1 hour FeCl3,,
Wavelength (nm),Abs,Wavelength (nm),Abs,Wavelength (nm),Abs,Wavelength (nm),Abs,Wavelength (nm),Abs,
1200,-0.0175043,1200,-0.0140852,1200,-0.0146954,1200,-0.0090797,1200,-0.0097495,
1192,-0.0172712,1192,-0.0141514,1192,-0.0146479,1192,-0.0091523,1192,-0.00990367,
1184,-0.0174783,1184,-0.0142888,1184,-0.0147301,1184,-0.00927557,1184,-0.00993555,
1176,-0.0170251,1176,-0.0139898,1176,-0.0145863,1176,-0.00910992,1176,-0.00947757,
1168,-0.0170552,1168,-0.013947,1168,-0.0143261,1168,-0.00898929,1168,-0.00958576,
1160,-0.0168239,1160,-0.0138075,1160,-0.0142722,1160,-0.00895826,1160,-0.00941658,
1152,-0.0166971,1152,-0.0137102,1152,-0.0140027,1152,-0.00885463,1152,-0.00937813,
1144,-0.0168275,1144,-0.0139506,1144,-0.0142523,1144,-0.00926356,1144,-0.00951034,
1136,-0.0166364,1136,-0.0136419,1136,-0.0140967,1136,-0.00900314,1136,-0.00909354,
1128,-0.0164099,1128,-0.0136454,1128,-0.0140139,1128,-0.00889136,1128,-0.0091707,
1120,-0.0163309,1120,-0.0135468,1120,-0.0140916,1120,-0.00878752,1120,-0.0092002,
1112,-0.0163313,1112,-0.0135425,1112,-0.0140499,1112,-0.00887645,1112,-0.00928221,
1104,-0.0164825,1104,-0.0136508,1104,-0.013912,1104,-0.0088311,1104,-0.00929224,
1096,-0.0162012,1096,-0.0135402,1096,-0.013906,1096,-0.00871395,1096,-0.00918677,
1088,-0.0161476,1088,-0.0134323,1088,-0.0138389,1088,-0.00872404,1088,-0.00916893,
1080,-0.0160527,1080,-0.0131336,1080,-0.0137524,1080,-0.00871618,1080,-0.00887685,
1072,-0.0158769,1072,-0.0129405,1072,-0.0136059,1072,-0.00837825,1072,-0.00877169,
1064,-0.015698,1064,-0.0129466,1064,-0.0136691,1064,-0.00822105,1064,-0.00871603,
1056,-0.015689,1056,-0.0128008,1056,-0.0135528,1056,-0.00841583,1056,-0.00867127,
1048,-0.0156731,1048,-0.0128561,1048,-0.0136762,1048,-0.00828241,1048,-0.00871674,
1040,-0.0154498,1040,-0.0125433,1040,-0.0132854,1040,-0.00819148,1040,-0.00852448,
1032,-0.0152727,1032,-0.0125123,1032,-0.0131962,1032,-0.00782792,1032,-0.00820499,
1024,-0.015273,1024,-0.0125613,1024,-0.0132438,1024,-0.00802903,1024,-0.00842304,
1016,-0.0151991,1016,-0.0122809,1016,-0.0130848,1016,-0.00781297,1016,-0.00817456,
1008,-0.0149387,1008,-0.0122218,1008,-0.0128306,1008,-0.00766493,1008,-0.00805607,
1000,-0.0149117,1000,-0.0121049,1000,-0.0128224,1000,-0.00752624,1000,-0.00808991,
992,-0.0150401,992,-0.0123485,992,-0.012946,992,-0.00766747,992,-0.00805637,
984,-0.0147831,984,-0.0121765,984,-0.0127602,984,-0.00751698,984,-0.00798644,
976,-0.0146611,976,-0.0119567,976,-0.0126527,976,-0.00740564,976,-0.00799482,
968,-0.0147845,968,-0.012088,968,-0.0126242,968,-0.00762683,968,-0.00810333,
960,-0.0144062,960,-0.0118058,960,-0.0124422,960,-0.0073839,960,-0.00783189,
952,-0.01447,952,-0.0118801,952,-0.0124044,952,-0.00735402,952,-0.00765384,
944,-0.0142797,944,-0.0115082,944,-0.0122938,944,-0.0071662,944,-0.00756379,
936,-0.0140374,936,-0.0114105,936,-0.0120454,936,-0.00726488,936,-0.0075094,
928,-0.0139452,928,-0.0114541,928,-0.0120056,928,-0.00708059,928,-0.0075958,
920,-0.0139579,920,-0.011297,920,-0.012001,920,-0.00698712,920,-0.00753876,
912,-0.0138309,912,-0.0113672,912,-0.0119856,912,-0.00730174,912,-0.00776365,
904,-0.0137945,904,-0.0114011,904,-0.011949,904,-0.0069999,904,-0.007561,
896,-0.0184669,896,-0.014935,896,-0.0167031,896,-0.00784867,896,-0.0110348,
888,-0.0200934,888,-0.0125625,888,-0.0186233,888,-0.00922174,888,-0.00791939,
880,-0.0194219,880,-0.0193882,880,-0.0144757,880,-0.0123616,880,-0.0128262,
872,-0.0180971,872,-0.0179492,872,-0.0168429,872,-0.0103545,872,-0.0110151,
864,-0.0165401,864,-0.0147345,864,-0.0149525,864,-0.0080644,864,-0.0106372,
856,-0.0169372,856,-0.0150803,856,-0.0152466,856,-0.0101469,856,-0.0116257,
848,-0.015725,848,-0.0146554,848,-0.0144474,848,-0.00877549,848,-0.00975477,
840,-0.016024,840,-0.014447,840,-0.0142248,840,-0.00848732,840,-0.00991404,
832,-0.015676,832,-0.0140511,832,-0.0141752,832,-0.00865554,832,-0.0100208,
824,-0.0158799,824,-0.0143857,824,-0.014518,824,-0.00901754,824,-0.00994203,
816,-0.0167045,816,-0.0148169,816,-0.0151568,816,-0.00868878,816,-0.0105265,
808,-0.016171,808,-0.0145599,808,-0.0142955,808,-0.00874201,808,-0.00992447,
800,-0.0159403,800,-0.0142063,800,-0.0141385,800,-0.00792386,800,-0.00937063,
792,-0.0157276,792,-0.0138071,792,-0.0133645,792,-0.00758048,792,-0.00928489,
784,-0.0154947,784,-0.0135382,784,-0.0133569,784,-0.00756344,784,-0.00876915,
776,-0.0152,776,-0.013185,776,-0.0129757,776,-0.00696776,776,-0.00847569,
768,-0.0146821,768,-0.0124421,768,-0.0122205,768,-0.00601424,768,-0.00742599,
760,-0.0145428,760,-0.0124325,760,-0.0120469,760,-0.00566832,760,-0.00705288,
752,-0.0147827,752,-0.0122666,752,-0.0116367,752,-0.00531789,752,-0.00676794,
744,-0.014012,744,-0.0115876,744,-0.0111753,744,-0.00467732,744,-0.00576648,
736,-0.0136521,736,-0.0108661,736,-0.0104292,736,-0.00379339,736,-0.00494603,
728,-0.0134828,728,-0.0105265,728,-0.00974338,728,-0.0027342,728,-0.00402581,
720,-0.013149,720,-0.00991936,720,-0.00928063,720,-0.00206858,720,-0.00319204,
712,-0.0129983,712,-0.0095616,712,-0.00839795,712,-0.00103044,712,-0.00217013,
704,-0.0126862,704,-0.0088105,704,-0.00758272,704,0.000180514,704,-0.00102496,
696,-0.011918,696,-0.0079108,696,-0.00633299,696,0.00177638,696,0.000485892,
688,-0.0117364,688,-0.00717741,688,-0.00550901,688,0.00311477,688,0.00192019,
680,-0.0113241,680,-0.00622639,680,-0.00414228,680,0.00457453,680,0.00370351,
672,-0.0108594,672,-0.00532704,672,-0.00285915,672,0.00643774,672,0.0056212,
664,-0.0104488,664,-0.00413377,664,-0.00143734,664,0.00844751,664,0.00759288,
656,-0.00989593,656,-0.00284871,656,0.000377193,656,0.0105332,656,0.0099809,
648,-0.010024,648,-0.00196547,648,0.00162747,648,0.0123405,648,0.0117286,
640,-0.00966014,640,-0.000769426,640,0.00343197,640,0.0146439,640,0.0141222,
632,-0.00871689,632,0.000890535,632,0.00556781,632,0.0173285,632,0.0170119,
624,-0.00740955,624,0.00307198,624,0.00821989,624,0.0203546,624,0.0200178,
616,-0.00587426,616,0.00558808,616,0.0112463,616,0.0235982,616,0.0233269,
608,-0.00403391,608,0.00813938,608,0.0144497,608,0.027012,608,0.0269847,
600,-0.00283076,600,0.0102457,600,0.0170996,600,0.0299709,600,0.0300326,
592,-0.000958173,592,0.0130998,592,0.0201181,592,0.0333104,592,0.0333126,
584,0.00299175,584,0.0174029,584,0.0246739,584,0.0377725,584,0.0377791,
576,0.00889042,576,0.0235283,576,0.0306415,576,0.0432274,576,0.0429121,
568,0.0176622,568,0.0320369,568,0.0383745,568,0.0502387,568,0.0495918,
560,0.0297448,560,0.0429899,560,0.0483015,560,0.0586192,560,0.0570969,
552,0.0437223,552,0.0557925,552,0.0591595,552,0.0676226,552,0.0654244,
544,0.0587416,544,0.0688624,544,0.0705185,544,0.0769951,544,0.0739249,
536,0.0721214,536,0.0802149,536,0.0802763,536,0.0847562,536,0.0809831,
528,0.0844774,528,0.090685,528,0.0892085,528,0.0922067,528,0.0876587,
520,0.0966735,520,0.100994,520,0.0981031,520,0.0995086,520,0.0944322,
512,0.108511,512,0.110963,512,0.106899,512,0.106708,512,0.100992,
504,0.11996,504,0.120424,504,0.115263,504,0.11369,504,0.107354,
496,0.129599,496,0.128256,496,0.122234,496,0.119796,496,0.112801,
488,0.136933,488,0.134179,488,0.127833,488,0.124783,488,0.117593,
480,0.142457,480,0.138544,480,0.132011,480,0.128693,480,0.12119,
472,0.146277,472,0.141441,472,0.135094,472,0.131738,472,0.124186,
464,0.148293,464,0.142814,464,0.136898,464,0.133932,464,0.126385,
456,0.147766,456,0.141911,456,0.136859,456,0.134645,456,0.127204,
448,0.14528,448,0.139538,448,0.135266,448,0.134082,448,0.127004,
440,0.141051,440,0.135706,440,0.132183,440,0.132228,440,0.125575,
432,0.135138,432,0.130345,432,0.127611,432,0.129071,432,0.122862,
424,0.127661,424,0.123666,424,0.122037,424,0.124509,424,0.11891,
416,0.118749,416,0.115699,416,0.115046,416,0.118727,416,0.113576,
408,0.109616,408,0.107301,408,0.107266,408,0.112068,408,0.107426,
400,0.101479,400,0.0997414,400,0.100355,400,0.105852,400,0.101699,
392,0.0957987,392,0.0949256,392,0.0958135,392,0.101559,392,0.0974889,
384,0.0948675,384,0.0938302,384,0.0944788,384,0.100388,384,0.096041,
376,0.0986264,376,0.0969823,376,0.0968531,376,0.102254,376,0.0975585,
368,0.102714,368,0.100487,368,0.0996166,368,0.104738,368,0.0989702,
360,0.105086,360,0.101737,360,0.10072,360,0.1052,360,0.0991474,
352,0.103986,352,0.0999896,352,0.0985983,352,0.1031,352,0.0964062,
344,0.0986459,344,0.0941167,344,0.0924455,344,0.096484,344,0.0901959,
336,0.0887604,336,0.0840006,336,0.0826453,336,0.0866886,336,0.0806942,
328,0.0737349,328,0.0693109,328,0.0678893,328,0.072489,328,0.0670933,
320,0.0579838,320,0.0533461,320,0.0520369,320,0.0581716,320,0.0534967,
312,0.0419452,312,0.037943,312,0.0373439,312,0.0445073,312,0.0410253,
304,0.0289742,304,0.025536,304,0.0248591,304,0.0338285,304,0.0305583,
300.667,0.0245624,300.667,0.0212395,300.667,0.0215932,300.667,0.0310563,300.667,0.0280184,

imine undoped,
imine undoped
Collection Time: 2024-09-03 1:50:45 PM
Operator Name  :
Scan Version 6.4.0.1610
Parameter List :
Instrument  Cary 7000
Instrument Version  3.07
Method Log     :
Method Name    :
Date/Time stamp: 2024-09-03 1:29:02 PM
Method Modifications:
ConcentrationReportSelected Changed: 2024-09-03 1:29:03 PM, Old:Choice 0, New:Choice 1
ConcentrationReportSelected Changed: 2024-09-03 1:29:03 PM, Old:ON, New:Choice 0
MCAReportSelected Changed: 2024-09-03 1:29:03 PM, Old:Choice 0, New:Choice 1
MCAReportSelected Changed: 2024-09-03 1:29:03 PM, Old:ON, New:Choice 0
X Start nm Changed: 2024-09-03 1:30:02 PM, Old:800.000, New:1200.000
X Stop nm Changed: 2024-09-03 1:30:02 PM, Old:200.000, New:300.000
UVVIS Scan Rate nm Changed: 2024-09-03 1:30:02 PM, Old:  602.007, New:  600.000
NIR Scan Rate nm Changed: 2024-09-03 1:30:02 PM, Old:    0.004, New:   12.000
Common Interval nm Changed: 2024-09-03 1:30:02 PM, Old:    1.000, New:    0.667
Source changeover Changed: 2024-09-03 1:30:02 PM, Old:   350.00, New:   300.00
Detector changeover Changed: 2024-09-03 1:30:02 PM, Old:   800.00, New:   900.00
Grating changeover Changed: 2024-09-03 1:30:02 PM, Old:   800.00, New:   900.00
Baseline Correction Changed: 2024-09-03 1:30:02 PM, Old:0, New:2
Sipper Type Changed: 2024-09-03 1:30:02 PM, Old:Internal RSA, New:External sipper
End Method Modifications
<Current Wavelength> , 300.000
<SBW (nm)> , 2.00
<Energy> , 91.20
<Slit Height> , Full

imine 1 min FeCl3 doping,
imine 1 min FeCl3 doping
Collection Time: 2024-09-03 2:09:57 PM
Operator Name  :
Scan Version 6.4.0.1610
Parameter List :
Instrument  Cary 7000
Instrument Version  3.07
Method Log     :
Method Name    :
Date/Time stamp: 2024-09-03 1:29:02 PM
Method Modifications:
ConcentrationReportSelected Changed: 2024-09-03 1:29:03 PM, Old:Choice 0, New:Choice 1
ConcentrationReportSelected Changed: 2024-09-03 1:29:03 PM, Old:ON, New:Choice 0
MCAReportSelected Changed: 2024-09-03 1:29:03 PM, Old:Choice 0, New:Choice 1
MCAReportSelected Changed: 2024-09-03 1:29:03 PM, Old:ON, New:Choice 0
X Start nm Changed: 2024-09-03 1:30:02 PM, Old:800.000, New:1200.000
X Stop nm Changed: 2024-09-03 1:30:02 PM, Old:200.000, New:300.000
UVVIS Scan Rate nm Changed: 2024-09-03 1:30:02 PM, Old:  602.007, New:  600.000
NIR Scan Rate nm Changed: 2024-09-03 1:30:02 PM, Old:    0.004, New:   12.000
Common Interval nm Changed: 2024-09-03 1:30:02 PM, Old:    1.000, New:    0.667
Source changeover Changed: 2024-09-03 1:30:02 PM, Old:   350.00, New:   300.00
Detector changeover Changed: 2024-09-03 1:30:02 PM, Old:   800.00, New:   900.00
Grating changeover Changed: 2024-09-03 1:30:02 PM, Old:   800.00, New:   900.00
Baseline Correction Changed: 2024-09-03 1:30:02 PM, Old:0, New:2
Sipper Type Changed: 2024-09-03 1:30:02 PM, Old:Internal RSA, New:External sipper
End Method Modifications
<Current Wavelength> , 300.000
<SBW (nm)> , 2.00
<Energy> , 91.20
<Slit Height> , Full

imine 10 min FeCl3,
imine 10 min FeCl3
Collection Time: 2024-09-03 2:46:42 PM
Operator Name  :
Scan Version 6.4.0.1610
Parameter List :
Instrument  Cary 7000
Instrument Version  3.07
Method Log     :
Method Name    :
Date/Time stamp: 2024-09-03 1:29:02 PM
Method Modifications:
ConcentrationReportSelected Changed: 2024-09-03 1:29:03 PM, Old:Choice 0, New:Choice 1
ConcentrationReportSelected Changed: 2024-09-03 1:29:03 PM, Old:ON, New:Choice 0
MCAReportSelected Changed: 2024-09-03 1:29:03 PM, Old:Choice 0, New:Choice 1
MCAReportSelected Changed: 2024-09-03 1:29:03 PM, Old:ON, New:Choice 0
X Start nm Changed: 2024-09-03 1:30:02 PM, Old:800.000, New:1200.000
X Stop nm Changed: 2024-09-03 1:30:02 PM, Old:200.000, New:300.000
UVVIS Scan Rate nm Changed: 2024-09-03 1:30:02 PM, Old:  602.007, New:  600.000
NIR Scan Rate nm Changed: 2024-09-03 1:30:02 PM, Old:    0.004, New:   12.000
Common Interval nm Changed: 2024-09-03 1:30:02 PM, Old:    1.000, New:    0.667
Source changeover Changed: 2024-09-03 1:30:02 PM, Old:   350.00, New:   300.00
Detector changeover Changed: 2024-09-03 1:30:02 PM, Old:   800.00, New:   900.00
Grating changeover Changed: 2024-09-03 1:30:02 PM, Old:   800.00, New:   900.00
Baseline Correction Changed: 2024-09-03 1:30:02 PM, Old:0, New:2
Sipper Type Changed: 2024-09-03 1:30:02 PM, Old:Internal RSA, New:External sipper
End Method Modifications
<Current Wavelength> , 300.000
<SBW (nm)> , 2.00
<Energy> , 91.20
<Slit Height> , Full

imine 30 min FeCl3 doping,
imine 30 min FeCl3 doping
Collection Time: 2024-09-03 3:22:30 PM
Operator Name  :
Scan Version 6.4.0.1610
Parameter List :
Instrument  Cary 7000
Instrument Version  3.07
Method Log     :
Method Name    :
Date/Time stamp: 2024-09-03 1:29:02 PM
Method Modifications:
ConcentrationReportSelected Changed: 2024-09-03 1:29:03 PM, Old:Choice 0, New:Choice 1
ConcentrationReportSelected Changed: 2024-09-03 1:29:03 PM, Old:ON, New:Choice 0
MCAReportSelected Changed: 2024-09-03 1:29:03 PM, Old:Choice 0, New:Choice 1
MCAReportSelected Changed: 2024-09-03 1:29:03 PM, Old:ON, New:Choice 0
X Start nm Changed: 2024-09-03 1:30:02 PM, Old:800.000, New:1200.000
X Stop nm Changed: 2024-09-03 1:30:02 PM, Old:200.000, New:300.000
UVVIS Scan Rate nm Changed: 2024-09-03 1:30:02 PM, Old:  602.007, New:  600.000
NIR Scan Rate nm Changed: 2024-09-03 1:30:02 PM, Old:    0.004, New:   12.000
Common Interval nm Changed: 2024-09-03 1:30:02 PM, Old:    1.000, New:    0.667
Source changeover Changed: 2024-09-03 1:30:02 PM, Old:   350.00, New:   300.00
Detector changeover Changed: 2024-09-03 1:30:02 PM, Old:   800.00, New:   900.00
Grating changeover Changed: 2024-09-03 1:30:02 PM, Old:   800.00, New:   900.00
Baseline Correction Changed: 2024-09-03 1:30:02 PM, Old:0, New:2
Sipper Type Changed: 2024-09-03 1:30:02 PM, Old:Internal RSA, New:External sipper
End Method Modifications
<Current Wavelength> , 300.000
<SBW (nm)> , 2.00
<Energy> , 91.20
<Slit Height> , Full

imine polymer 1 hour FeCl3,
imine polymer 1 hour FeCl3
Collection Time: 2024-09-03 4:25:43 PM
Operator Name  :
Scan Version 6.4.0.1610
Parameter List :
Instrument  Cary 7000
Instrument Version  3.07
Method Log     :
Method Name    :
Date/Time stamp: 2024-09-03 1:29:02 PM
Method Modifications:
ConcentrationReportSelected Changed: 2024-09-03 1:29:03 PM, Old:Choice 0, New:Choice 1
ConcentrationReportSelected Changed: 2024-09-03 1:29:03 PM, Old:ON, New:Choice 0
MCAReportSelected Changed: 2024-09-03 1:29:03 PM, Old:Choice 0, New:Choice 1
MCAReportSelected Changed: 2024-09-03 1:29:03 PM, Old:ON, New:Choice 0
X Start nm Changed: 2024-09-03 1:30:02 PM, Old:800.000, New:1200.000
X Stop nm Changed: 2024-09-03 1:30:02 PM, Old:200.000, New:300.000
UVVIS Scan Rate nm Changed: 2024-09-03 1:30:02 PM, Old:  602.007, New:  600.000
NIR Scan Rate nm Changed: 2024-09-03 1:30:02 PM, Old:    0.004, New:   12.000
Common Interval nm Changed: 2024-09-03 1:30:02 PM, Old:    1.000, New:    0.667
Source changeover Changed: 2024-09-03 1:30:02 PM, Old:   350.00, New:   300.00
Detector changeover Changed: 2024-09-03 1:30:02 PM, Old:   800.00, New:   900.00
Grating changeover Changed: 2024-09-03 1:30:02 PM, Old:   800.00, New:   900.00
Baseline Correction Changed: 2024-09-03 1:30:02 PM, Old:0, New:2
Sipper Type Changed: 2024-09-03 1:30:02 PM, Old:Internal RSA, New:External sipper
End Method Modifications
<Current Wavelength> , 300.000
<SBW (nm)> , 2.00
<Energy> , 91.20
<Slit Height> , Full