File: UV-Vis data/2024_09/2024_09_11_imine polymer t=5hrs FeCl3 solution doping.csv
t=5hrs FeCl3 0uM,,t=5hrs FeCl3 5uM,,t=5hrs FeCl3 20uM,,t=5hrs FeCl3 50uM,,t=5hrs FeCl3 100uM,,
Wavelength (nm),Abs,Wavelength (nm),Abs,Wavelength (nm),Abs,Wavelength (nm),Abs,Wavelength (nm),Abs,
1400,0.00754828,1400,0.00660087,1400,0.00973622,1400,0.00559996,1400,0.00725482,
1391,0.00334406,1391,0.0021207,1391,0.0029862,1391,0.00182228,1391,0.00365942,
1382,0.00231316,1382,0.00136075,1382,0.00183718,1382,0.00122829,1382,0.00301469,
1373,0.00205375,1373,0.00128398,1373,0.00193738,1373,0.00124464,1373,0.0030473,
1364,0.00182696,1364,0.00104957,1364,0.00193587,1364,0.00132131,1364,0.00297968,
1355,0.00121414,1355,0.000638895,1355,0.00158907,1355,0.00107217,1355,0.00254999,
1346,0.000649991,1346,0.00041712,1346,0.00185467,1346,0.00109989,1346,0.00246418,
1337,0.000507791,1337,0.000206619,1337,0.00209885,1337,0.00115455,1337,0.00243338,
1328,0.000230964,1328,0.000198306,1328,0.00233247,1328,0.0010921,1328,0.00243731,
1319,0.000203227,1319,0.000215347,1319,0.00232609,1319,0.000918525,1319,0.00237242,
1310,0.000292221,1310,0.000238061,1310,0.00202155,1310,0.00084447,1310,0.00243367,
1301,0.000315561,1301,0.000330845,1301,0.0012973,1301,0.000883921,1301,0.00246202,
1292,0.000321416,1292,0.000411445,1292,0.000587335,1292,0.000677368,1292,0.002549,
1283,0.000283078,1283,0.000536326,1283,0.000358384,1283,0.000532231,1283,0.00260754,
1274,0.000346052,1274,0.000507636,1274,0.000230912,1274,0.000490039,1274,0.00260889,
1265,0.000347606,1265,0.000530339,1265,0.000240314,1265,0.000550348,1265,0.00271229,
1256,0.000350197,1256,0.000469385,1256,0.000180333,1256,0.000460056,1256,0.0027758,
1247,0.000393671,1247,0.000470007,1247,0.000268728,1247,0.000575334,1247,0.00284513,
1238,0.000492812,1238,0.000397609,1238,0.000321312,1238,0.000617975,1238,0.0029496,
1229,0.000483482,1229,0.000198487,1229,0.000341052,1229,0.000470577,1229,0.00297906,
1220,0.00053744,1220,0.000154049,1220,0.000596304,1220,0.000490531,1220,0.00313758,
1211,0.000746934,1211,0.000161403,1211,0.000705811,1211,0.000489365,1211,0.00316647,
1202,0.000638895,1202,0.000178287,1202,0.000843095,1202,0.000565329,1202,0.00316079,
1193,0.000799291,1193,0.000156587,1193,0.00073135,1193,0.000549207,1193,0.00295727,
1184,0.00064841,1184,0.000134524,1184,0.000738248,1184,0.000562711,1184,0.00288805,
1175,0.000602448,1175,0.00029059,1175,0.000843874,1175,0.00069461,1175,0.00298943,
1166,0.000557916,1166,0.000351907,1166,0.00090405,1166,0.00076519,1166,0.0030816,
1157,0.000774292,1157,0.000584925,1157,0.0009983,1157,0.000763038,1157,0.0031575,
1148,0.00137496,1148,0.00108748,1148,0.00169235,1148,0.00125983,1148,0.00386915,
1139,0.000915101,1139,0.000815863,1139,0.00133162,1139,0.00153547,1139,0.00395558,
1130,0.00100842,1130,0.000846545,1130,0.00141809,1130,0.00151311,1130,0.00419733,
1121,0.00114178,1121,0.000566547,1121,0.00120848,1121,0.00101913,1121,0.00389362,
1112,0.00120148,1112,0.00040318,1112,0.00114147,1112,0.000834874,1112,0.00382049,
1103,0.00131469,1103,0.000389914,1103,0.00124869,1103,0.000819261,1103,0.00383313,
1094,0.00142537,1094,0.000367477,1094,0.0012575,1094,0.000866127,1094,0.0038779,
1085,0.00171226,1085,0.000421421,1085,0.00130142,1085,0.000875128,1085,0.00386899,
1076,0.00205726,1076,0.000445804,1076,0.00132534,1076,0.000965843,1076,0.00391895,
1067,0.00223366,1067,0.000387194,1067,0.00134468,1067,0.000980891,1067,0.00385695,
1058,0.00238249,1058,0.00044881,1058,0.00141313,1058,0.00110674,1058,0.00393502,
1049,0.00246634,1049,0.000521993,1049,0.00167063,1049,0.00133165,1049,0.00409632,
1040,0.00233424,1040,0.00056888,1040,0.00181316,1040,0.00142269,1040,0.00423288,
1031,0.0022346,1031,0.000613853,1031,0.00183465,1031,0.00155207,1031,0.00435811,
1022,0.00216602,1022,0.000643121,1022,0.00188309,1022,0.00165587,1022,0.00448313,
1013,0.00204046,1013,0.000677731,1013,0.00188418,1013,0.00183406,1013,0.00466756,
1004,0.00182044,1004,0.000686495,1004,0.00199926,1004,0.00205372,1004,0.00484008,
995,0.0016976,995,0.000721264,995,0.00208028,995,0.0022531,995,0.00498727,
986,0.00160156,986,0.000767238,986,0.00227137,986,0.00251062,986,0.00521207,
977,0.00143261,977,0.000848931,977,0.0024641,977,0.00279029,977,0.00545849,
968,0.00125609,968,0.000711489,968,0.00249198,968,0.00289884,968,0.00548675,
959,0.00136745,959,0.0010024,959,0.00306038,959,0.00326557,959,0.00605008,
950,0.00120783,950,0.001001,950,0.00327947,950,0.00342362,950,0.00642771,
941,0.00109467,941,0.00102181,941,0.0035933,941,0.00352346,941,0.00676988,
932,0.00106945,932,0.00108927,932,0.00383953,932,0.00375208,932,0.00721242,
923,0.00104057,923,0.00111966,923,0.00405381,923,0.00393565,923,0.00768335,
914,0.000994642,914,0.00120745,914,0.00438352,914,0.00424156,914,0.00830547,
905,0.000973263,905,0.00129226,905,0.00467973,905,0.00452119,905,0.00888331,
896,0.00425463,896,0.00157249,896,0.00687524,896,0.00737908,896,0.0108832,
887,0.000572742,887,0.00254291,887,0.00472477,887,0.00769049,887,0.0125372,
878,0.00448729,878,0.00402089,878,0.0084431,878,0.00953455,878,0.0150501,
869,0.00285264,869,0.0030991,869,0.00798503,869,0.00897135,869,0.015576,
860,0.00315643,860,0.00382613,860,0.00815167,860,0.00987994,860,0.0168253,
851,0.00357722,851,0.00403688,851,0.0092691,851,0.010982,851,0.0186947,
842,0.00305986,842,0.0040286,842,0.00997348,842,0.0117912,842,0.0208358,
833,0.00350551,833,0.00450144,833,0.0110892,833,0.0130672,833,0.0229598,
824,0.00356334,824,0.00478894,824,0.0122652,824,0.0145016,824,0.0258705,
815,0.00366401,815,0.00460603,815,0.0135106,815,0.0158319,815,0.0291431,
806,0.00345387,806,0.00485961,806,0.0146452,806,0.0171096,806,0.0332543,
797,0.00398152,797,0.00558501,797,0.0165436,797,0.019394,797,0.0388826,
788,0.00383334,788,0.00560219,788,0.0181942,788,0.0213463,788,0.0454722,
779,0.0038641,779,0.00597315,779,0.0201316,779,0.0238232,779,0.054472,
770,0.0039591,770,0.00621062,770,0.0223859,770,0.026606,770,0.0660457,
761,0.00388385,761,0.00632636,761,0.0244643,761,0.0297553,761,0.0797845,
752,0.0039287,752,0.00660229,752,0.026916,752,0.0333314,752,0.0938555,
743,0.00379809,743,0.00665215,743,0.029565,743,0.0375138,743,0.107423,
734,0.00385927,734,0.00668619,734,0.0327039,734,0.0424163,734,0.120724,
725,0.00378547,725,0.00662087,725,0.0362123,725,0.0483084,725,0.13489,
716,0.0037685,716,0.0067795,716,0.0403221,716,0.0553192,716,0.151731,
707,0.00377558,707,0.0069199,707,0.0451686,707,0.063415,707,0.172484,
698,0.00383055,698,0.00687422,698,0.0505753,698,0.0724846,698,0.196865,
689,0.00386152,689,0.00702441,689,0.0563039,689,0.0823912,689,0.224604,
680,0.00416239,680,0.00742856,680,0.0626689,680,0.0931542,680,0.255414,
671,0.00434718,671,0.00755737,671,0.0692412,671,0.104391,671,0.288448,
662,0.00397507,662,0.00708711,662,0.0756931,662,0.115802,662,0.32318,
653,0.00388706,653,0.00701489,653,0.0826215,653,0.127871,653,0.358929,
644,0.0037086,644,0.0069229,644,0.0895864,644,0.13997,644,0.394616,
635,0.00346631,635,0.00682607,635,0.0965606,635,0.152171,635,0.429785,
626,0.00336067,626,0.00693245,626,0.103723,626,0.16471,626,0.464247,
617,0.00342597,617,0.00709521,617,0.110845,617,0.17683,617,0.49786,
608,0.00393962,608,0.00760745,608,0.118029,608,0.188768,608,0.529995,
599,0.00458183,599,0.00801886,599,0.124354,599,0.199424,599,0.558943,
590,0.00542339,590,0.00829257,590,0.130043,590,0.20889,590,0.583855,
581,0.00766169,581,0.00897437,581,0.134988,581,0.217335,581,0.603031,
572,0.0123758,572,0.00993521,572,0.139056,572,0.224963,572,0.614931,
563,0.0232678,563,0.0122094,563,0.14268,563,0.233472,563,0.619928,
554,0.0484609,554,0.016464,554,0.146969,554,0.245706,554,0.618876,
545,0.100574,545,0.0241535,545,0.152637,545,0.266089,545,0.612714,
536,0.189248,536,0.0368914,536,0.160507,536,0.297585,536,0.60149,
527,0.30984,527,0.0560018,527,0.171291,527,0.339222,527,0.585048,
518,0.439814,518,0.0803404,518,0.184229,518,0.383744,518,0.563573,
509,0.561406,509,0.107963,509,0.198091,509,0.425792,509,0.537544,
500,0.674611,500,0.137704,500,0.212618,500,0.464867,500,0.508013,
491,0.776822,491,0.169311,491,0.227197,491,0.499858,491,0.475813,
482,0.853799,482,0.201799,482,0.241811,482,0.526649,482,0.442563,
473,0.893866,473,0.233176,473,0.256001,473,0.541614,473,0.409668,
464,0.90117,464,0.261453,464,0.269674,464,0.546157,464,0.378584,
455,0.882998,455,0.28658,455,0.282234,455,0.542076,455,0.351417,
446,0.842798,446,0.308666,446,0.294381,446,0.530732,446,0.331025,
437,0.786277,437,0.327901,437,0.307402,437,0.515311,437,0.319799,
428,0.722685,428,0.342752,428,0.321069,428,0.499125,428,0.317824,
419,0.659734,419,0.354563,419,0.33583,419,0.485426,419,0.328896,
410,0.603055,410,0.364263,410,0.352173,410,0.478116,410,0.354885,
401,0.558282,401,0.37399,401,0.37255,401,0.482927,401,0.396043,
392,0.531295,392,0.385344,392,0.397798,392,0.503363,392,0.447169,
383,0.531306,383,0.404082,383,0.431631,383,0.543218,383,0.509696,
374,0.568316,374,0.438408,374,0.480554,374,0.604936,374,0.581257,
365,0.623687,365,0.489795,365,0.547215,365,0.680875,365,0.658042,
356,0.649259,356,0.519315,356,0.606925,356,0.775626,356,0.807382,
347,0.633205,347,0.514592,347,0.62468,347,0.822692,347,0.916625,
338,0.575425,338,0.480167,338,0.586076,338,0.766609,338,0.870637,
329,0.48332,329,0.418159,329,0.540957,329,0.747509,329,0.916011,
320,0.384701,320,0.35343,320,0.45918,320,0.636137,320,0.792728,
311,0.29635,311,0.299947,311,0.392696,311,0.544126,311,0.702539,
302,0.231935,302,0.26377,302,0.332176,302,0.43705,302,0.571924,
300,0.221382,300,0.258673,300,0.322973,300,0.42002,300,0.552065,

t=5hrs FeCl3 0uM,
t=5hrs FeCl3 0uM
Collection Time: 2024-09-11 4:07:01 PM
Operator Name  :
Scan Version 6.4.0.1610
Parameter List :
Instrument  Cary 7000
Instrument Version  3.07
Method Log     :
Method Name    :
Date/Time stamp: 2024-09-11 3:56:56 PM
Method Modifications:
ConcentrationReportSelected Changed: 2024-09-11 3:56:57 PM, Old:Choice 0, New:Choice 1
ConcentrationReportSelected Changed: 2024-09-11 3:56:57 PM, Old:ON, New:Choice 0
MCAReportSelected Changed: 2024-09-11 3:56:57 PM, Old:Choice 0, New:Choice 1
MCAReportSelected Changed: 2024-09-11 3:56:57 PM, Old:ON, New:Choice 0
X Start nm Changed: 2024-09-11 3:59:31 PM, Old:800.000, New:1400.000
X Stop nm Changed: 2024-09-11 3:59:31 PM, Old:200.000, New:300.000
UVVIS Scan Rate nm Changed: 2024-09-11 3:59:31 PM, Old:  602.007, New:  600.000
NIR Scan Rate nm Changed: 2024-09-11 3:59:31 PM, Old:    0.004, New:   12.000
Source changeover Changed: 2024-09-11 3:59:31 PM, Old:   350.00, New:   300.00
Detector changeover Changed: 2024-09-11 3:59:31 PM, Old:   800.00, New:   900.00
Grating changeover Changed: 2024-09-11 3:59:31 PM, Old:   800.00, New:   900.00
Baseline Correction Changed: 2024-09-11 3:59:31 PM, Old:0, New:2
Sipper Type Changed: 2024-09-11 3:59:31 PM, Old:Internal RSA, New:External sipper
End Method Modifications
<Current Wavelength> , 300.000
<SBW (nm)> , 2.00
<Energy> , 57.54
<Slit Height> , Full

t=5hrs FeCl3 5uM,
t=5hrs FeCl3 5uM
Collection Time: 2024-09-11 4:10:42 PM
Operator Name  :
Scan Version 6.4.0.1610
Parameter List :
Instrument  Cary 7000
Instrument Version  3.07
Method Log     :
Method Name    :
Date/Time stamp: 2024-09-11 3:56:56 PM
Method Modifications:
ConcentrationReportSelected Changed: 2024-09-11 3:56:57 PM, Old:Choice 0, New:Choice 1
ConcentrationReportSelected Changed: 2024-09-11 3:56:57 PM, Old:ON, New:Choice 0
MCAReportSelected Changed: 2024-09-11 3:56:57 PM, Old:Choice 0, New:Choice 1
MCAReportSelected Changed: 2024-09-11 3:56:57 PM, Old:ON, New:Choice 0
X Start nm Changed: 2024-09-11 3:59:31 PM, Old:800.000, New:1400.000
X Stop nm Changed: 2024-09-11 3:59:31 PM, Old:200.000, New:300.000
UVVIS Scan Rate nm Changed: 2024-09-11 3:59:31 PM, Old:  602.007, New:  600.000
NIR Scan Rate nm Changed: 2024-09-11 3:59:31 PM, Old:    0.004, New:   12.000
Source changeover Changed: 2024-09-11 3:59:31 PM, Old:   350.00, New:   300.00
Detector changeover Changed: 2024-09-11 3:59:31 PM, Old:   800.00, New:   900.00
Grating changeover Changed: 2024-09-11 3:59:31 PM, Old:   800.00, New:   900.00
Baseline Correction Changed: 2024-09-11 3:59:31 PM, Old:0, New:2
Sipper Type Changed: 2024-09-11 3:59:31 PM, Old:Internal RSA, New:External sipper
End Method Modifications
<Current Wavelength> , 300.000
<SBW (nm)> , 2.00
<Energy> , 60.26
<Slit Height> , Full

t=5hrs FeCl3 20uM,
t=5hrs FeCl3 20uM
Collection Time: 2024-09-11 4:14:25 PM
Operator Name  :
Scan Version 6.4.0.1610
Parameter List :
Instrument  Cary 7000
Instrument Version  3.07
Method Log     :
Method Name    :
Date/Time stamp: 2024-09-11 3:56:56 PM
Method Modifications:
ConcentrationReportSelected Changed: 2024-09-11 3:56:57 PM, Old:Choice 0, New:Choice 1
ConcentrationReportSelected Changed: 2024-09-11 3:56:57 PM, Old:ON, New:Choice 0
MCAReportSelected Changed: 2024-09-11 3:56:57 PM, Old:Choice 0, New:Choice 1
MCAReportSelected Changed: 2024-09-11 3:56:57 PM, Old:ON, New:Choice 0
X Start nm Changed: 2024-09-11 3:59:31 PM, Old:800.000, New:1400.000
X Stop nm Changed: 2024-09-11 3:59:31 PM, Old:200.000, New:300.000
UVVIS Scan Rate nm Changed: 2024-09-11 3:59:31 PM, Old:  602.007, New:  600.000
NIR Scan Rate nm Changed: 2024-09-11 3:59:31 PM, Old:    0.004, New:   12.000
Source changeover Changed: 2024-09-11 3:59:31 PM, Old:   350.00, New:   300.00
Detector changeover Changed: 2024-09-11 3:59:31 PM, Old:   800.00, New:   900.00
Grating changeover Changed: 2024-09-11 3:59:31 PM, Old:   800.00, New:   900.00
Baseline Correction Changed: 2024-09-11 3:59:31 PM, Old:0, New:2
Sipper Type Changed: 2024-09-11 3:59:31 PM, Old:Internal RSA, New:External sipper
End Method Modifications
<Current Wavelength> , 300.000
<SBW (nm)> , 2.00
<Energy> , 72.44
<Slit Height> , Full

t=5hrs FeCl3 50uM,
t=5hrs FeCl3 50uM
Collection Time: 2024-09-11 4:18:03 PM
Operator Name  :
Scan Version 6.4.0.1610
Parameter List :
Instrument  Cary 7000
Instrument Version  3.07
Method Log     :
Method Name    :
Date/Time stamp: 2024-09-11 3:56:56 PM
Method Modifications:
ConcentrationReportSelected Changed: 2024-09-11 3:56:57 PM, Old:Choice 0, New:Choice 1
ConcentrationReportSelected Changed: 2024-09-11 3:56:57 PM, Old:ON, New:Choice 0
MCAReportSelected Changed: 2024-09-11 3:56:57 PM, Old:Choice 0, New:Choice 1
MCAReportSelected Changed: 2024-09-11 3:56:57 PM, Old:ON, New:Choice 0
X Start nm Changed: 2024-09-11 3:59:31 PM, Old:800.000, New:1400.000
X Stop nm Changed: 2024-09-11 3:59:31 PM, Old:200.000, New:300.000
UVVIS Scan Rate nm Changed: 2024-09-11 3:59:31 PM, Old:  602.007, New:  600.000
NIR Scan Rate nm Changed: 2024-09-11 3:59:31 PM, Old:    0.004, New:   12.000
Source changeover Changed: 2024-09-11 3:59:31 PM, Old:   350.00, New:   300.00
Detector changeover Changed: 2024-09-11 3:59:31 PM, Old:   800.00, New:   900.00
Grating changeover Changed: 2024-09-11 3:59:31 PM, Old:   800.00, New:   900.00
Baseline Correction Changed: 2024-09-11 3:59:31 PM, Old:0, New:2
Sipper Type Changed: 2024-09-11 3:59:31 PM, Old:Internal RSA, New:External sipper
End Method Modifications
<Current Wavelength> , 300.000
<SBW (nm)> , 2.00
<Energy> , 72.44
<Slit Height> , Full

t=5hrs FeCl3 100uM,
t=5hrs FeCl3 100uM
Collection Time: 2024-09-11 4:21:40 PM
Operator Name  :
Scan Version 6.4.0.1610
Parameter List :
Instrument  Cary 7000
Instrument Version  3.07
Method Log     :
Method Name    :
Date/Time stamp: 2024-09-11 3:56:56 PM
Method Modifications:
ConcentrationReportSelected Changed: 2024-09-11 3:56:57 PM, Old:Choice 0, New:Choice 1
ConcentrationReportSelected Changed: 2024-09-11 3:56:57 PM, Old:ON, New:Choice 0
MCAReportSelected Changed: 2024-09-11 3:56:57 PM, Old:Choice 0, New:Choice 1
MCAReportSelected Changed: 2024-09-11 3:56:57 PM, Old:ON, New:Choice 0
X Start nm Changed: 2024-09-11 3:59:31 PM, Old:800.000, New:1400.000
X Stop nm Changed: 2024-09-11 3:59:31 PM, Old:200.000, New:300.000
UVVIS Scan Rate nm Changed: 2024-09-11 3:59:31 PM, Old:  602.007, New:  600.000
NIR Scan Rate nm Changed: 2024-09-11 3:59:31 PM, Old:    0.004, New:   12.000
Source changeover Changed: 2024-09-11 3:59:31 PM, Old:   350.00, New:   300.00
Detector changeover Changed: 2024-09-11 3:59:31 PM, Old:   800.00, New:   900.00
Grating changeover Changed: 2024-09-11 3:59:31 PM, Old:   800.00, New:   900.00
Baseline Correction Changed: 2024-09-11 3:59:31 PM, Old:0, New:2
Sipper Type Changed: 2024-09-11 3:59:31 PM, Old:Internal RSA, New:External sipper
End Method Modifications
<Current Wavelength> , 299.000
<SBW (nm)> , 2.00
<Energy> , 72.44
<Slit Height> , Full