File: UV-Vis data/2024_09/2024_09_06_non-imine 48hrs post neutralization.csv
non-imine polymer 0.0% TFA,,non-imine polymer 0.017% TFA,,non-imine polymer 0.05% TFA,,non-imine polymer 0.1% TFA,,non-imine polymer 0.25% TFA,,non-imine polymer 0.5% TFA,,non-imine polymer 1.0% TFA,,
Wavelength (nm),Abs,Wavelength (nm),Abs,Wavelength (nm),Abs,Wavelength (nm),Abs,Wavelength (nm),Abs,Wavelength (nm),Abs,Wavelength (nm),Abs,
1400,0.00158348,1400,0.003395,1400,0.00310285,1400,0.00650816,1400,0.00404143,1400,0.0086148,1400,0.00811045,
1386,0.000160445,1386,0.000929835,1386,0.00102095,1386,0.00455444,1386,0.0026433,1386,0.00683611,1386,0.00616795,
1372,0.000100501,1372,0.000742293,1372,0.000759692,1372,0.00317435,1372,0.00198863,1372,0.00527144,1372,0.00510941,
1358,-9.14714e-05,1358,0.000379861,1358,0.000347995,1358,0.00227662,1358,0.00137441,1358,0.00395631,1358,0.00393904,
1344,-0.000491038,1344,-0.000339284,1344,-0.000467094,1344,-3.70154e-05,1344,-6.7303e-06,1344,0.00135592,1344,0.000909861,
1330,-0.000474696,1330,-0.000404409,1330,-0.000511102,1330,-0.000238137,1330,-0.000208073,1330,0.000838894,1330,0.000220915,
1316,-0.000400116,1316,-0.000316677,1316,-0.00043508,1316,-0.000168381,1316,-0.000157099,1316,0.000815319,1316,0.000158322,
1302,-0.000421426,1302,-0.000377616,1302,-0.000482143,1302,-0.000187012,1302,-0.000240311,1302,0.000624508,1302,-0.000104049,
1288,-0.000362925,1288,-0.000323454,1288,-0.000371046,1288,0.000230446,1288,-0.00010995,1288,0.000774966,1288,0.000183001,
1274,-0.000360545,1274,-0.000280048,1274,-0.0003547,1274,0.000508335,1274,-7.37687e-05,1274,0.000759589,1274,0.000173238,
1260,-0.000373115,1260,-0.000308399,1260,-0.000343061,1260,0.000494082,1260,-4.12603e-05,1260,0.000746364,1260,0.000175491,
1246,-0.00037684,1246,-0.000318695,1246,-0.000364477,1246,0.000379706,1246,-2.98196e-05,1246,0.00081257,1246,0.00016029,
1232,-0.000410047,1232,-0.00033168,1232,-0.000387288,1232,0.000346467,1232,-2.24167e-05,1232,0.000889031,1232,0.000137321,
1218,-0.000358011,1218,-0.000266026,1218,-0.000305244,1218,0.000720175,1218,0.000108061,1218,0.00114801,1218,0.000285331,
1204,-0.000311504,1204,-0.00021863,1204,-0.00021806,1204,0.00160801,1204,0.000313385,1204,0.00158275,1204,0.000651209,
1190,-0.000319988,1190,-7.81168e-05,1190,3.70171e-06,1190,0.00382287,1190,0.000929083,1190,0.00279566,1190,0.00180286,
1176,-0.000286567,1176,4.18596e-05,1176,0.000246686,1176,0.00297152,1176,0.00243416,1176,0.00603661,1176,0.00587926,
1162,-0.000323247,1162,-0.000129928,1162,-0.000163258,1162,0.000956971,1162,0.00113622,1162,0.00306135,1162,0.00229544,
1148,-0.000335094,1148,-0.00027596,1148,-0.000509706,1148,-0.000549625,1148,-0.000132982,1148,0.000202268,1148,-0.00202767,
1134,-0.00109644,1134,-0.0015264,1134,-0.00204545,1134,-0.00481016,1134,-0.00293351,1134,-0.0051827,1134,-0.00900192,
1120,-0.000610686,1120,-0.000646512,1120,-0.000818519,1120,-0.00131612,1120,-9.19372e-05,1120,0.000122095,1120,-0.0012455,
1106,-0.000482609,1106,-0.000496261,1106,-0.000627695,1106,-0.000632658,1106,0.000313748,1106,0.00081633,1106,-0.00033049,
1092,-0.000507069,1092,-0.000515032,1092,-0.000640774,1092,-0.000591919,1092,0.000323358,1092,0.000777352,1092,-0.000384909,
1078,-0.000438804,1078,-0.000463112,1078,-0.000585922,1078,-0.000522323,1078,0.000381805,1078,0.00086426,1078,-0.000299863,
1064,-0.00048597,1064,-0.000471593,1064,-0.000594866,1064,-0.000519117,1064,0.000233891,1064,0.00079522,1064,-0.00029381,
1050,-0.000415478,1050,-0.000442063,1050,-0.000545851,1050,-0.000495123,1050,0.000223894,1050,0.000894997,1050,-0.000258162,
1036,-0.000437615,1036,-0.000474645,1036,-0.000607429,1036,-0.000537009,1036,0.000144416,1036,0.000854741,1036,-0.000268562,
1022,-0.000468645,1022,-0.000486746,1022,-0.000615805,1022,-0.000509292,1022,0.000118781,1022,0.000928253,1022,-0.000244243,
1008,-0.000471386,1008,-0.000464405,1008,-0.00060898,1008,-0.000519479,1008,0.000186186,1008,0.00100341,1008,-0.000135414,
994,-0.000452872,994,-0.000457216,994,-0.000609549,994,-0.000557381,994,0.000198513,994,0.000979049,994,-0.000230014,
980,-0.000466939,980,-0.000507069,980,-0.000644393,980,-0.00060319,980,0.000202061,980,0.000951185,980,-0.000309641,
966,-0.000545334,966,-0.000580596,966,-0.000679906,966,-0.000708852,966,0.000166116,966,0.000866231,966,-0.000355838,
952,-0.000489797,952,-0.000525168,952,-0.000598072,952,-0.000627178,952,0.000189889,952,0.0010469,952,-0.000301415,
938,-0.000428615,938,-0.000497502,938,-0.000541818,938,-0.000622008,938,0.000250234,938,0.00106473,938,-0.000317608,
924,-0.00036846,924,-0.000435029,924,-0.000492434,924,-0.000475369,924,0.000320897,924,0.00115299,924,-0.000242846,
910,-0.000340784,910,-0.00041222,910,-0.000499933,910,-0.000243105,910,0.000391054,910,0.00130719,910,-6.23807e-05,
896,-3.76366e-05,896,0.000440803,896,-0.000402702,896,0.0010387,896,-9.03326e-05,896,0.00230098,896,0.00113967,
882,-0.000157617,882,-0.000396392,882,-0.000921287,882,-0.000707301,882,0.000491827,882,0.00215418,882,-0.000109432,
868,0.000866802,868,0.000561726,868,-9.28172e-05,868,-0.000240725,868,0.00107767,868,0.00135317,868,-0.000321643,
854,0.000717452,854,-3.598e-05,854,5.84286e-05,854,8.98854e-05,854,0.00129384,854,0.00217525,854,0.00071919,
840,0.000721653,840,0.000282042,840,0.000238993,840,0.000123079,840,0.00140095,840,0.00243929,840,0.000804089,
826,0.000690695,826,0.000291703,826,6.53411e-05,826,0.00016912,826,0.00155124,826,0.00256085,826,0.000825485,
812,0.000605999,812,0.000202812,812,-0.000142039,812,4.38272e-05,812,0.00179054,812,0.00260319,812,0.000612168,
798,0.000625337,798,0.00019121,798,-9.61816e-05,798,-9.16267e-05,798,0.00214232,798,0.00271847,798,0.000633166,
784,0.000665702,784,0.000164692,784,-2.14331e-05,784,-0.000101927,784,0.00254413,784,0.00295093,784,0.000648695,
770,0.000690098,770,0.000287896,770,3.021e-05,770,1.57907e-05,770,0.00272941,770,0.00306591,770,0.000696762,
756,0.000644936,756,0.000213819,756,-0.000139658,756,-6.88512e-05,756,0.00266945,756,0.00318373,756,0.000661865,
742,0.000707081,742,0.000231301,742,-9.5457e-05,742,-4.77311e-05,742,0.00266135,742,0.00336952,742,0.000680713,
728,0.000644184,728,0.000200145,728,-0.000187115,728,-0.000117455,728,0.00261606,728,0.00350256,728,0.000600192,
714,0.000765449,714,0.00023459,714,-0.00011083,714,-9.30242e-05,714,0.00274092,714,0.00369725,714,0.000580803,
700,0.000827404,700,0.000220397,700,-0.000134638,700,-0.000164345,700,0.00269281,700,0.00381203,700,0.000679572,
686,0.0010148,686,0.000481668,686,5.23964e-05,686,7.01049e-05,686,0.00286903,686,0.00419461,686,0.000897954,
672,0.00152446,672,0.000953261,672,0.000426603,672,0.000573597,672,0.00327686,672,0.0049199,672,0.00135678,
658,0.0011737,658,0.000553147,658,0.00015726,658,0.000162879,658,0.00284412,658,0.004702,658,0.00107171,
644,0.00134595,644,0.000695414,644,0.000250985,644,0.000195872,644,0.00300645,644,0.00510839,644,0.00130952,
630,0.00180427,630,0.001105,630,0.000606232,630,0.000612428,630,0.00366877,630,0.00600399,630,0.00189323,
616,0.00293399,616,0.00216805,616,0.00167016,616,0.0015727,616,0.00550274,616,0.00794862,616,0.0033673,
602,0.00583636,602,0.00498876,602,0.0042821,602,0.00406957,602,0.00984867,602,0.0123515,602,0.00663215,
588,0.0158432,588,0.0142665,588,0.0129898,588,0.012148,588,0.019654,588,0.0230187,588,0.0147977,
574,0.0649166,574,0.0599522,574,0.0551032,574,0.0511006,574,0.0571363,574,0.0652836,574,0.0463144,
560,0.220993,560,0.210879,560,0.194544,560,0.180923,560,0.175184,560,0.194342,560,0.142284,
546,0.448954,546,0.449574,546,0.417119,546,0.393625,546,0.366857,546,0.398973,546,0.299942,
532,0.644222,532,0.670439,532,0.625779,532,0.601224,532,0.557637,532,0.601533,532,0.463452,
518,0.8053,518,0.854153,518,0.80154,518,0.780381,518,0.725938,518,0.779361,518,0.612578,
504,0.911362,504,0.984492,504,0.927589,504,0.913664,504,0.854441,504,0.913281,504,0.731825,
490,0.936016,490,1.03094,490,0.975402,490,0.97363,490,0.920055,490,0.980306,490,0.802157,
476,0.898718,476,1.0082,476,0.957779,476,0.968538,476,0.927455,476,0.985775,476,0.823289,
462,0.817885,462,0.93626,462,0.893474,462,0.917251,462,0.89189,462,0.946592,462,0.809321,
448,0.709143,448,0.826238,448,0.79238,448,0.823987,448,0.814323,448,0.863869,448,0.753615,
434,0.598263,434,0.70584,434,0.679918,434,0.71556,434,0.718479,434,0.762275,434,0.676015,
420,0.49637,420,0.588674,420,0.569113,420,0.604842,420,0.616888,420,0.654472,420,0.587011,
406,0.410914,406,0.486175,406,0.471299,406,0.502935,406,0.519104,406,0.550717,406,0.496361,
392,0.329334,392,0.387993,392,0.376145,392,0.401609,392,0.419627,392,0.444027,392,0.400382,
378,0.269085,378,0.314445,378,0.303794,378,0.323807,378,0.342885,378,0.361856,378,0.324111,
364,0.243369,364,0.282352,364,0.272519,364,0.288508,364,0.308875,364,0.325587,364,0.28547,
350,0.221724,350,0.255725,350,0.246757,350,0.261313,350,0.283919,350,0.300229,350,0.259035,
336,0.204848,336,0.237723,336,0.22908,336,0.242768,336,0.267119,336,0.284625,336,0.241718,
322,0.190969,322,0.226364,322,0.217125,322,0.230304,322,0.257519,322,0.274563,322,0.231174,
308,0.186063,308,0.230081,308,0.212016,308,0.224859,308,0.260955,308,0.273502,308,0.229388,
300,0.192423,300,0.245097,300,0.218134,300,0.234085,300,0.277316,300,0.287531,300,0.241164,

non-imine polymer 0.0% TFA,
non-imine polymer 0.0% TFA
Collection Time: 2024-09-06 3:01:14 PM
Operator Name  :
Scan Version 6.4.0.1610
Parameter List :
Instrument  Cary 7000
Instrument Version  3.07
Method Log     :
Method Name    :
Date/Time stamp: 2024-09-06 2:24:00 PM
Method Modifications:
ConcentrationReportSelected Changed: 2024-09-06 2:24:01 PM, Old:Choice 0, New:Choice 1
ConcentrationReportSelected Changed: 2024-09-06 2:24:01 PM, Old:ON, New:Choice 0
MCAReportSelected Changed: 2024-09-06 2:24:01 PM, Old:Choice 0, New:Choice 1
MCAReportSelected Changed: 2024-09-06 2:24:01 PM, Old:ON, New:Choice 0
X Start nm Changed: 2024-09-06 2:26:10 PM, Old:800.000, New:1400.000
X Stop nm Changed: 2024-09-06 2:26:10 PM, Old:200.000, New:300.000
UVVIS Scan Rate nm Changed: 2024-09-06 2:26:10 PM, Old:  602.007, New:  600.000
NIR Scan Rate nm Changed: 2024-09-06 2:26:10 PM, Old:    0.004, New:   12.000
Common Interval nm Changed: 2024-09-06 2:26:10 PM, Old:    1.000, New:    0.667
Source changeover Changed: 2024-09-06 2:26:10 PM, Old:   350.00, New:   300.00
Detector changeover Changed: 2024-09-06 2:26:10 PM, Old:   800.00, New:   900.00
Grating changeover Changed: 2024-09-06 2:26:10 PM, Old:   800.00, New:   900.00
Baseline Correction Changed: 2024-09-06 2:26:10 PM, Old:0, New:2
Sipper Type Changed: 2024-09-06 2:26:10 PM, Old:Internal RSA, New:External sipper
End Method Modifications
<Current Wavelength> , 300.000
<SBW (nm)> , 2.00
<Energy> , 45.71
<Slit Height> , Full

non-imine polymer 0.017% TFA,
non-imine polymer 0.017% TFA
Collection Time: 2024-09-06 3:05:56 PM
Operator Name  :
Scan Version 6.4.0.1610
Parameter List :
Instrument  Cary 7000
Instrument Version  3.07
Method Log     :
Method Name    :
Date/Time stamp: 2024-09-06 2:24:00 PM
Method Modifications:
ConcentrationReportSelected Changed: 2024-09-06 2:24:01 PM, Old:Choice 0, New:Choice 1
ConcentrationReportSelected Changed: 2024-09-06 2:24:01 PM, Old:ON, New:Choice 0
MCAReportSelected Changed: 2024-09-06 2:24:01 PM, Old:Choice 0, New:Choice 1
MCAReportSelected Changed: 2024-09-06 2:24:01 PM, Old:ON, New:Choice 0
X Start nm Changed: 2024-09-06 2:26:10 PM, Old:800.000, New:1400.000
X Stop nm Changed: 2024-09-06 2:26:10 PM, Old:200.000, New:300.000
UVVIS Scan Rate nm Changed: 2024-09-06 2:26:10 PM, Old:  602.007, New:  600.000
NIR Scan Rate nm Changed: 2024-09-06 2:26:10 PM, Old:    0.004, New:   12.000
Common Interval nm Changed: 2024-09-06 2:26:10 PM, Old:    1.000, New:    0.667
Source changeover Changed: 2024-09-06 2:26:10 PM, Old:   350.00, New:   300.00
Detector changeover Changed: 2024-09-06 2:26:10 PM, Old:   800.00, New:   900.00
Grating changeover Changed: 2024-09-06 2:26:10 PM, Old:   800.00, New:   900.00
Baseline Correction Changed: 2024-09-06 2:26:10 PM, Old:0, New:2
Sipper Type Changed: 2024-09-06 2:26:10 PM, Old:Internal RSA, New:External sipper
End Method Modifications
<Current Wavelength> , 300.000
<SBW (nm)> , 2.00
<Energy> , 45.71
<Slit Height> , Full

non-imine polymer 0.05% TFA,
non-imine polymer 0.05% TFA
Collection Time: 2024-09-06 3:11:06 PM
Operator Name  :
Scan Version 6.4.0.1610
Parameter List :
Instrument  Cary 7000
Instrument Version  3.07
Method Log     :
Method Name    :
Date/Time stamp: 2024-09-06 2:24:00 PM
Method Modifications:
ConcentrationReportSelected Changed: 2024-09-06 2:24:01 PM, Old:Choice 0, New:Choice 1
ConcentrationReportSelected Changed: 2024-09-06 2:24:01 PM, Old:ON, New:Choice 0
MCAReportSelected Changed: 2024-09-06 2:24:01 PM, Old:Choice 0, New:Choice 1
MCAReportSelected Changed: 2024-09-06 2:24:01 PM, Old:ON, New:Choice 0
X Start nm Changed: 2024-09-06 2:26:10 PM, Old:800.000, New:1400.000
X Stop nm Changed: 2024-09-06 2:26:10 PM, Old:200.000, New:300.000
UVVIS Scan Rate nm Changed: 2024-09-06 2:26:10 PM, Old:  602.007, New:  600.000
NIR Scan Rate nm Changed: 2024-09-06 2:26:10 PM, Old:    0.004, New:   12.000
Common Interval nm Changed: 2024-09-06 2:26:10 PM, Old:    1.000, New:    0.667
Source changeover Changed: 2024-09-06 2:26:10 PM, Old:   350.00, New:   300.00
Detector changeover Changed: 2024-09-06 2:26:10 PM, Old:   800.00, New:   900.00
Grating changeover Changed: 2024-09-06 2:26:10 PM, Old:   800.00, New:   900.00
Baseline Correction Changed: 2024-09-06 2:26:10 PM, Old:0, New:2
Sipper Type Changed: 2024-09-06 2:26:10 PM, Old:Internal RSA, New:External sipper
End Method Modifications
<Current Wavelength> , 298.667
<SBW (nm)> , 2.00
<Energy> , 45.71
<Slit Height> , Full

non-imine polymer 0.1% TFA,
non-imine polymer 0.1% TFA
Collection Time: 2024-09-06 3:15:48 PM
Operator Name  :
Scan Version 6.4.0.1610
Parameter List :
Instrument  Cary 7000
Instrument Version  3.07
Method Log     :
Method Name    :
Date/Time stamp: 2024-09-06 2:24:00 PM
Method Modifications:
ConcentrationReportSelected Changed: 2024-09-06 2:24:01 PM, Old:Choice 0, New:Choice 1
ConcentrationReportSelected Changed: 2024-09-06 2:24:01 PM, Old:ON, New:Choice 0
MCAReportSelected Changed: 2024-09-06 2:24:01 PM, Old:Choice 0, New:Choice 1
MCAReportSelected Changed: 2024-09-06 2:24:01 PM, Old:ON, New:Choice 0
X Start nm Changed: 2024-09-06 2:26:10 PM, Old:800.000, New:1400.000
X Stop nm Changed: 2024-09-06 2:26:10 PM, Old:200.000, New:300.000
UVVIS Scan Rate nm Changed: 2024-09-06 2:26:10 PM, Old:  602.007, New:  600.000
NIR Scan Rate nm Changed: 2024-09-06 2:26:10 PM, Old:    0.004, New:   12.000
Common Interval nm Changed: 2024-09-06 2:26:10 PM, Old:    1.000, New:    0.667
Source changeover Changed: 2024-09-06 2:26:10 PM, Old:   350.00, New:   300.00
Detector changeover Changed: 2024-09-06 2:26:10 PM, Old:   800.00, New:   900.00
Grating changeover Changed: 2024-09-06 2:26:10 PM, Old:   800.00, New:   900.00
Baseline Correction Changed: 2024-09-06 2:26:10 PM, Old:0, New:2
Sipper Type Changed: 2024-09-06 2:26:10 PM, Old:Internal RSA, New:External sipper
End Method Modifications
<Current Wavelength> , 300.000
<SBW (nm)> , 2.00
<Energy> , 45.71
<Slit Height> , Full

non-imine polymer 0.25% TFA,
non-imine polymer 0.25% TFA
Collection Time: 2024-09-06 3:20:27 PM
Operator Name  :
Scan Version 6.4.0.1610
Parameter List :
Instrument  Cary 7000
Instrument Version  3.07
Method Log     :
Method Name    :
Date/Time stamp: 2024-09-06 2:24:00 PM
Method Modifications:
ConcentrationReportSelected Changed: 2024-09-06 2:24:01 PM, Old:Choice 0, New:Choice 1
ConcentrationReportSelected Changed: 2024-09-06 2:24:01 PM, Old:ON, New:Choice 0
MCAReportSelected Changed: 2024-09-06 2:24:01 PM, Old:Choice 0, New:Choice 1
MCAReportSelected Changed: 2024-09-06 2:24:01 PM, Old:ON, New:Choice 0
X Start nm Changed: 2024-09-06 2:26:10 PM, Old:800.000, New:1400.000
X Stop nm Changed: 2024-09-06 2:26:10 PM, Old:200.000, New:300.000
UVVIS Scan Rate nm Changed: 2024-09-06 2:26:10 PM, Old:  602.007, New:  600.000
NIR Scan Rate nm Changed: 2024-09-06 2:26:10 PM, Old:    0.004, New:   12.000
Common Interval nm Changed: 2024-09-06 2:26:10 PM, Old:    1.000, New:    0.667
Source changeover Changed: 2024-09-06 2:26:10 PM, Old:   350.00, New:   300.00
Detector changeover Changed: 2024-09-06 2:26:10 PM, Old:   800.00, New:   900.00
Grating changeover Changed: 2024-09-06 2:26:10 PM, Old:   800.00, New:   900.00
Baseline Correction Changed: 2024-09-06 2:26:10 PM, Old:0, New:2
Sipper Type Changed: 2024-09-06 2:26:10 PM, Old:Internal RSA, New:External sipper
End Method Modifications
<Current Wavelength> , 300.000
<SBW (nm)> , 2.00
<Energy> , 45.71
<Slit Height> , Full

non-imine polymer 0.5% TFA,
non-imine polymer 0.5% TFA
Collection Time: 2024-09-06 3:25:18 PM
Operator Name  :
Scan Version 6.4.0.1610
Parameter List :
Instrument  Cary 7000
Instrument Version  3.07
Method Log     :
Method Name    :
Date/Time stamp: 2024-09-06 2:24:00 PM
Method Modifications:
ConcentrationReportSelected Changed: 2024-09-06 2:24:01 PM, Old:Choice 0, New:Choice 1
ConcentrationReportSelected Changed: 2024-09-06 2:24:01 PM, Old:ON, New:Choice 0
MCAReportSelected Changed: 2024-09-06 2:24:01 PM, Old:Choice 0, New:Choice 1
MCAReportSelected Changed: 2024-09-06 2:24:01 PM, Old:ON, New:Choice 0
X Start nm Changed: 2024-09-06 2:26:10 PM, Old:800.000, New:1400.000
X Stop nm Changed: 2024-09-06 2:26:10 PM, Old:200.000, New:300.000
UVVIS Scan Rate nm Changed: 2024-09-06 2:26:10 PM, Old:  602.007, New:  600.000
NIR Scan Rate nm Changed: 2024-09-06 2:26:10 PM, Old:    0.004, New:   12.000
Common Interval nm Changed: 2024-09-06 2:26:10 PM, Old:    1.000, New:    0.667
Source changeover Changed: 2024-09-06 2:26:10 PM, Old:   350.00, New:   300.00
Detector changeover Changed: 2024-09-06 2:26:10 PM, Old:   800.00, New:   900.00
Grating changeover Changed: 2024-09-06 2:26:10 PM, Old:   800.00, New:   900.00
Baseline Correction Changed: 2024-09-06 2:26:10 PM, Old:0, New:2
Sipper Type Changed: 2024-09-06 2:26:10 PM, Old:Internal RSA, New:External sipper
End Method Modifications
<Current Wavelength> , 300.000
<SBW (nm)> , 2.00
<Energy> , 45.71
<Slit Height> , Full

non-imine polymer 1.0% TFA,
non-imine polymer 1.0% TFA
Collection Time: 2024-09-06 3:30:01 PM
Operator Name  :
Scan Version 6.4.0.1610
Parameter List :
Instrument  Cary 7000
Instrument Version  3.07
Method Log     :
Method Name    :
Date/Time stamp: 2024-09-06 2:24:00 PM
Method Modifications:
ConcentrationReportSelected Changed: 2024-09-06 2:24:01 PM, Old:Choice 0, New:Choice 1
ConcentrationReportSelected Changed: 2024-09-06 2:24:01 PM, Old:ON, New:Choice 0
MCAReportSelected Changed: 2024-09-06 2:24:01 PM, Old:Choice 0, New:Choice 1
MCAReportSelected Changed: 2024-09-06 2:24:01 PM, Old:ON, New:Choice 0
X Start nm Changed: 2024-09-06 2:26:10 PM, Old:800.000, New:1400.000
X Stop nm Changed: 2024-09-06 2:26:10 PM, Old:200.000, New:300.000
UVVIS Scan Rate nm Changed: 2024-09-06 2:26:10 PM, Old:  602.007, New:  600.000
NIR Scan Rate nm Changed: 2024-09-06 2:26:10 PM, Old:    0.004, New:   12.000
Common Interval nm Changed: 2024-09-06 2:26:10 PM, Old:    1.000, New:    0.667
Source changeover Changed: 2024-09-06 2:26:10 PM, Old:   350.00, New:   300.00
Detector changeover Changed: 2024-09-06 2:26:10 PM, Old:   800.00, New:   900.00
Grating changeover Changed: 2024-09-06 2:26:10 PM, Old:   800.00, New:   900.00
Baseline Correction Changed: 2024-09-06 2:26:10 PM, Old:0, New:2
Sipper Type Changed: 2024-09-06 2:26:10 PM, Old:Internal RSA, New:External sipper
End Method Modifications
<Current Wavelength> , 300.000
<SBW (nm)> , 2.00
<Energy> , 45.71
<Slit Height> , Full