File: UV-Vis data/2024_09/2024_09_11_imine polymer t=3hrs FeCl3 solution doping.csv
t=3hrs FeCl3 0uM,,t=3hrs FeCl3 5uM,,t=3hrs FeCl3 20uM,,t=3hrs FeCl3 50uM,,t=3hrs FeCl3 100uM,,
Wavelength (nm),Abs,Wavelength (nm),Abs,Wavelength (nm),Abs,Wavelength (nm),Abs,Wavelength (nm),Abs,
1400,0.00613343,1400,0.00603604,1400,0.0102921,1400,0.00626267,1400,0.00618602,
1390,0.00198946,1390,0.00114411,1390,0.00283914,1390,0.00182077,1390,0.00224857,
1380,0.00126632,1380,0.000918084,1380,0.00200886,1380,0.00175855,1380,0.00220176,
1370,0.00114819,1370,0.000892688,1370,0.00180185,1370,0.00165189,1370,0.00210829,
1360,0.000804193,1360,0.000673894,1360,0.00128987,1360,0.00164306,1360,0.0018353,
1350,0.000610458,1350,0.000544386,1350,0.00107383,1350,0.00201804,1350,0.00181248,
1340,0.000389318,1340,8.35938e-05,1340,0.000957412,1340,0.00176738,1340,0.00150973,
1330,0.000368047,1330,-8.29307e-05,1330,0.000995602,1330,0.00152251,1330,0.00157875,
1320,0.000304578,1320,-0.00020176,1320,0.000928694,1320,0.00125064,1320,0.0015939,
1310,0.000117771,1310,-0.000447183,1310,0.000704514,1310,0.000948409,1310,0.0012232,
1300,0.000221951,1300,-0.000332094,1300,0.000873079,1300,0.00106937,1300,0.00126624,
1290,0.000157363,1290,-0.000356355,1290,0.000960836,1290,0.00102235,1290,0.00133349,
1280,0.000192764,1280,-0.000232911,1280,0.00100738,1280,0.00107625,1280,0.00136392,
1270,0.000235937,1270,-0.000192445,1270,0.00111998,1270,0.00119587,1270,0.00145612,
1260,0.000179945,1260,-0.000194101,1260,0.00110817,1260,0.00125651,1260,0.00141955,
1250,0.000195923,1250,-0.000161912,1250,0.00101926,1250,0.0013459,1250,0.00151711,
1240,0.000240314,1240,-0.000222355,1240,0.000857413,1240,0.00128699,1240,0.00174056,
1230,0.000242723,1230,-0.000202278,1230,0.000725776,1230,0.0012469,1230,0.00178649,
1220,0.000259092,1220,-0.000200518,1220,0.000614631,1220,0.00118883,1220,0.0018,
1210,0.000225033,1210,-0.000264733,1210,0.000526218,1210,0.00119576,1210,0.00179717,
1200,0.00027971,1200,-0.000241397,1200,0.000521682,1200,0.00124649,1200,0.00181162,
1190,0.000200119,1190,-0.000449614,1190,0.000366026,1190,0.00121261,1190,0.00182673,
1180,0.000124478,1180,-0.000538715,1180,0.00040147,1180,0.00114198,1180,0.00189723,
1170,0.000175335,1170,-0.000516739,1170,0.000522667,1170,0.00124374,1170,0.00209687,
1160,0.000112489,1160,-0.000693397,1160,0.000435931,1160,0.00122248,1160,0.00223871,
1150,0.000196182,1150,-0.000267216,1150,0.000953494,1150,0.00121801,1150,0.00283255,
1140,9.89733e-05,1140,-0.000396496,1140,0.000841539,1140,0.00168643,1140,0.00300197,
1130,0.000127662,1130,-0.000374564,1130,0.00109542,1130,0.00188046,1130,0.00322947,
1120,0.000134343,1120,-0.000492848,1120,0.000990542,1120,0.00170644,1120,0.00292044,
1110,0.000150864,1110,-0.000586077,1110,0.000789229,1110,0.00168508,1110,0.0026633,
1100,0.000241298,1100,-0.000496726,1100,0.000812518,1100,0.00183926,1100,0.00266606,
1090,0.00032613,1090,-0.000503242,1090,0.000676591,1090,0.00197778,1090,0.002589,
1080,0.000383826,1080,-0.000445062,1080,0.000694662,1080,0.00219216,1080,0.00290181,
1070,0.000542261,1070,-0.000372857,1070,0.000772918,1070,0.00236008,1070,0.00323685,
1060,0.000602992,1060,-0.0003293,1060,0.00102417,1060,0.00257074,1060,0.0032652,
1050,0.000618131,1050,-0.000303692,1050,0.0012252,1050,0.00273141,1050,0.00332666,
1040,0.000823436,1040,-0.00013676,1040,0.00154997,1040,0.00300004,1040,0.00348666,
1030,0.000862859,1030,-5.86019e-05,1030,0.00180895,1030,0.00318835,1030,0.00365958,
1020,0.000946619,1020,8.70373e-05,1020,0.00192921,1020,0.00342978,1020,0.00390268,
1010,0.000916449,1010,8.90828e-05,1010,0.00187271,1010,0.00343612,1010,0.00408002,
1000,0.000926203,1000,0.000173937,1000,0.00199937,1000,0.00366208,1000,0.00464566,
990,0.000854637,990,0.000150061,990,0.00195422,990,0.0037684,990,0.00521034,
980,0.000911339,980,0.000230317,980,0.00215894,980,0.00407991,980,0.00578161,
970,0.000772217,970,0.000166116,970,0.00211922,970,0.00435845,970,0.00629316,
960,0.000916138,960,0.000433055,960,0.00251362,960,0.00489335,960,0.00663822,
950,0.000814904,950,0.000448006,950,0.00256272,950,0.00515106,950,0.00659275,
940,0.000816771,940,0.000480787,940,0.00265202,940,0.00550177,940,0.00658905,
930,0.000762519,930,0.000569295,930,0.00290397,930,0.00594024,930,0.00678263,
920,0.000760341,920,0.000688776,920,0.00329123,920,0.00637766,920,0.00709534,
910,0.000697228,910,0.000798021,910,0.00362475,910,0.00690493,910,0.00747641,
900,0.000819105,900,0.000967011,900,0.00417708,900,0.00756493,900,0.00827708,
890,0.00129026,890,0.00328341,890,0.00709476,890,0.0107842,890,0.0125649,
880,0.00186764,880,0.00358526,880,0.00578418,880,0.0106963,880,0.0113955,
870,0.000871497,870,0.0015508,870,0.00669608,870,0.010505,870,0.0115259,
860,0.00155714,860,0.00256733,860,0.00799969,860,0.0126435,860,0.0135557,
850,0.00169493,850,0.00329118,850,0.00889301,850,0.0141673,850,0.0159253,
840,0.00180195,840,0.00337653,840,0.0101736,840,0.0158597,840,0.017855,
830,0.00205658,830,0.00383041,830,0.0114539,830,0.0182625,830,0.020746,
820,0.00206642,820,0.00405263,820,0.0128471,820,0.020544,820,0.0238184,
810,0.00191556,810,0.00440416,810,0.014248,810,0.0234721,810,0.0276849,
800,0.00222648,800,0.00498667,800,0.0162638,800,0.0271442,800,0.0329192,
790,0.00213894,790,0.00516738,790,0.018246,790,0.0312652,790,0.03936572,
780,0.00212203,780,0.00562416,780,0.0206329,780,0.0366095,780,0.0481146,
770,0.00195589,770,0.00597013,770,0.0231412,770,0.0430814,770,0.0595966,
760,0.00217811,760,0.0064152,760,0.0263144,760,0.0513318,760,0.07384976,
750,0.00203253,750,0.00653317,750,0.0297819,750,0.0612654,750,0.0887314,
740,0.00201794,740,0.00680477,740,0.0340162,740,0.0740529,740,0.103811,
730,0.00204111,730,0.00707298,730,0.0393878,730,0.0903137,730,0.120261,
720,0.00192775,720,0.00725956,720,0.0457797,720,0.110443,720,0.139073,
710,0.00173588,710,0.00747585,710,0.0532868,710,0.135365,710,0.162841,
700,0.00170982,700,0.00769386,700,0.0619648,700,0.165096,700,0.191929,
690,0.0016647,690,0.00800963,690,0.0718893,690,0.199426,690,0.22639,
680,0.0015024,680,0.00829827,680,0.0826626,680,0.237357,680,0.264856,
670,0.00154272,670,0.00886059,670,0.0945348,670,0.278526,670,0.307208,
660,0.00113386,660,0.00884191,660,0.106587,660,0.321793,660,0.351833,
650,0.000988856,650,0.0092485,650,0.1193223,650,0.366361,650,0.398315,
640,0.00100992,640,0.0100302,640,0.132342,640,0.411227,640,0.444556,
630,0.0010183,630,0.0110502,630,0.145679,630,0.455917,630,0.490145,
620,0.00105829,620,0.0122848,620,0.158658,620,0.499545,620,0.534464,
610,0.00127141,610,0.0138139,610,0.171443,610,0.541591,610,0.577304,
600,0.00184893,600,0.0155625,600,0.183156,600,0.579776,600,0.616929,
590,0.00277018,590,0.0176229,590,0.193372,590,0.612538,590,0.651124,
580,0.00534843,580,0.0201569,580,0.201741,580,0.637642,580,0.676509,
570,0.0115719,570,0.0236367,570,0.207986,570,0.653536,570,0.691677,
560,0.0279219,560,0.0290962,560,0.212427,560,0.660218,560,0.696671,
550,0.0664649,550,0.0376687,550,0.215701,550,0.658173,550,0.692952,
540,0.144985,540,0.0522535,540,0.218863,540,0.648909,540,0.681709,
530,0.267888,530,0.0748114,530,0.222828,530,0.633099,530,0.662679,
520,0.412424,520,0.105187,520,0.22834,520,0.610964,520,0.635905,
510,0.549374,510,0.139605,510,0.234729,510,0.583151,510,0.602377,
500,0.676433,500,0.175791,500,0.241434,500,0.550429,500,0.563506,
490,0.789006,490,0.212752,490,0.248022,490,0.514294,490,0.521045,
480,0.867673,480,0.248871,480,0.255276,480,0.476839,480,0.477058,
470,0.900612,470,0.281005,470,0.263611,470,0.440877,470,0.434284,
460,0.89651,460,0.307619,460,0.272914,460,0.409248,460,0.395613,
450,0.863026,450,0.329571,450,0.28357,450,0.384724,450,0.365136,
440,0.805169,440,0.346386,440,0.296336,440,0.369384,440,0.345713,
430,0.73545,430,0.358966,430,0.311937,430,0.365566,430,0.340251,
420,0.66482,420,0.369018,420,0.329675,420,0.37241,420,0.35073,
410,0.601001,410,0.380357,410,0.349188,410,0.390764,410,0.381228,
400,0.551909,400,0.396173,400,0.372038,400,0.420127,400,0.430245,
390,0.52619,390,0.414309,390,0.399421,390,0.459093,390,0.491828,
380,0.537222,380,0.441977,380,0.43699,380,0.507608,380,0.566765,
370,0.591053,370,0.487003,370,0.492967,370,0.559206,370,0.646731,
360,0.641285,360,0.530278,360,0.554381,360,0.60702,360,0.741222,
350,0.640317,350,0.526246,350,0.576283,350,0.661764,350,0.888112,
340,0.590345,340,0.492926,340,0.54523,340,0.604851,340,0.835028,
330,0.492637,330,0.423376,330,0.499399,330,0.625822,330,0.876404,
320,0.382977,320,0.351158,320,0.427046,320,0.565384,320,0.764454,
310,0.286363,310,0.291388,310,0.362369,310,0.497546,310,0.664784,
300,0.220428,300,0.252541,300,0.308353,300,0.405274,300,0.542402,

t=3hrs FeCl3 0uM,
t=3hrs FeCl3 0uM
Collection Time: 2024-09-11 2:06:48 PM
Operator Name  :
Scan Version 6.4.0.1610
Parameter List :
Instrument  Cary 7000
Instrument Version  3.07
Method Log     :
Method Name    :
Date/Time stamp: 2024-09-11 1:55:44 PM
Method Modifications:
ConcentrationReportSelected Changed: 2024-09-11 1:55:44 PM, Old:Choice 0, New:Choice 1
ConcentrationReportSelected Changed: 2024-09-11 1:55:44 PM, Old:ON, New:Choice 0
MCAReportSelected Changed: 2024-09-11 1:55:44 PM, Old:Choice 0, New:Choice 1
MCAReportSelected Changed: 2024-09-11 1:55:44 PM, Old:ON, New:Choice 0
X Start nm Changed: 2024-09-11 1:57:39 PM, Old:800.000, New:1400.000
X Stop nm Changed: 2024-09-11 1:57:39 PM, Old:200.000, New:300.000
UVVIS Scan Rate nm Changed: 2024-09-11 1:57:39 PM, Old:  602.007, New:  600.000
NIR Scan Rate nm Changed: 2024-09-11 1:57:39 PM, Old:    0.004, New:   12.000
Common Interval nm Changed: 2024-09-11 1:57:39 PM, Old:    1.000, New:    0.667
Source changeover Changed: 2024-09-11 1:57:39 PM, Old:   350.00, New:   300.00
Detector changeover Changed: 2024-09-11 1:57:39 PM, Old:   800.00, New:   900.00
Grating changeover Changed: 2024-09-11 1:57:39 PM, Old:   800.00, New:   900.00
Baseline Correction Changed: 2024-09-11 1:57:39 PM, Old:0, New:2
Sipper Type Changed: 2024-09-11 1:57:39 PM, Old:Internal RSA, New:External sipper
End Method Modifications
<Current Wavelength> , 300.000
<SBW (nm)> , 2.00
<Energy> , 57.54
<Slit Height> , Full

t=3hrs FeCl3 5uM,
t=3hrs FeCl3 5uM
Collection Time: 2024-09-11 2:16:18 PM
Operator Name  :
Scan Version 6.4.0.1610
Parameter List :
Instrument  Cary 7000
Instrument Version  3.07
Method Log     :
Method Name    :
Date/Time stamp: 2024-09-11 1:55:44 PM
Method Modifications:
ConcentrationReportSelected Changed: 2024-09-11 1:55:44 PM, Old:Choice 0, New:Choice 1
ConcentrationReportSelected Changed: 2024-09-11 1:55:44 PM, Old:ON, New:Choice 0
MCAReportSelected Changed: 2024-09-11 1:55:44 PM, Old:Choice 0, New:Choice 1
MCAReportSelected Changed: 2024-09-11 1:55:44 PM, Old:ON, New:Choice 0
X Start nm Changed: 2024-09-11 1:57:39 PM, Old:800.000, New:1400.000
X Stop nm Changed: 2024-09-11 1:57:39 PM, Old:200.000, New:300.000
UVVIS Scan Rate nm Changed: 2024-09-11 1:57:39 PM, Old:  602.007, New:  600.000
NIR Scan Rate nm Changed: 2024-09-11 1:57:39 PM, Old:    0.004, New:   12.000
Common Interval nm Changed: 2024-09-11 1:57:39 PM, Old:    1.000, New:    0.667
Source changeover Changed: 2024-09-11 1:57:39 PM, Old:   350.00, New:   300.00
Detector changeover Changed: 2024-09-11 1:57:39 PM, Old:   800.00, New:   900.00
Grating changeover Changed: 2024-09-11 1:57:39 PM, Old:   800.00, New:   900.00
Baseline Correction Changed: 2024-09-11 1:57:39 PM, Old:0, New:2
Sipper Type Changed: 2024-09-11 1:57:39 PM, Old:Internal RSA, New:External sipper
End Method Modifications
<Current Wavelength> , 300.000
<SBW (nm)> , 2.00
<Energy> , 60.26
<Slit Height> , Full

t=3hrs FeCl3 20uM,
t=3hrs FeCl3 20uM
Collection Time: 2024-09-11 2:21:15 PM
Operator Name  :
Scan Version 6.4.0.1610
Parameter List :
Instrument  Cary 7000
Instrument Version  3.07
Method Log     :
Method Name    :
Date/Time stamp: 2024-09-11 1:55:44 PM
Method Modifications:
ConcentrationReportSelected Changed: 2024-09-11 1:55:44 PM, Old:Choice 0, New:Choice 1
ConcentrationReportSelected Changed: 2024-09-11 1:55:44 PM, Old:ON, New:Choice 0
MCAReportSelected Changed: 2024-09-11 1:55:44 PM, Old:Choice 0, New:Choice 1
MCAReportSelected Changed: 2024-09-11 1:55:44 PM, Old:ON, New:Choice 0
X Start nm Changed: 2024-09-11 1:57:39 PM, Old:800.000, New:1400.000
X Stop nm Changed: 2024-09-11 1:57:39 PM, Old:200.000, New:300.000
UVVIS Scan Rate nm Changed: 2024-09-11 1:57:39 PM, Old:  602.007, New:  600.000
NIR Scan Rate nm Changed: 2024-09-11 1:57:39 PM, Old:    0.004, New:   12.000
Common Interval nm Changed: 2024-09-11 1:57:39 PM, Old:    1.000, New:    0.667
Source changeover Changed: 2024-09-11 1:57:39 PM, Old:   350.00, New:   300.00
Detector changeover Changed: 2024-09-11 1:57:39 PM, Old:   800.00, New:   900.00
Grating changeover Changed: 2024-09-11 1:57:39 PM, Old:   800.00, New:   900.00
Baseline Correction Changed: 2024-09-11 1:57:39 PM, Old:0, New:2
Sipper Type Changed: 2024-09-11 1:57:39 PM, Old:Internal RSA, New:External sipper
End Method Modifications
<Current Wavelength> , 300.000
<SBW (nm)> , 2.00
<Energy> , 66.07
<Slit Height> , Full

t=3hrs FeCl3 50uM,
t=3hrs FeCl3 50uM
Collection Time: 2024-09-11 2:26:09 PM
Operator Name  :
Scan Version 6.4.0.1610
Parameter List :
Instrument  Cary 7000
Instrument Version  3.07
Method Log     :
Method Name    :
Date/Time stamp: 2024-09-11 1:55:44 PM
Method Modifications:
ConcentrationReportSelected Changed: 2024-09-11 1:55:44 PM, Old:Choice 0, New:Choice 1
ConcentrationReportSelected Changed: 2024-09-11 1:55:44 PM, Old:ON, New:Choice 0
MCAReportSelected Changed: 2024-09-11 1:55:44 PM, Old:Choice 0, New:Choice 1
MCAReportSelected Changed: 2024-09-11 1:55:44 PM, Old:ON, New:Choice 0
X Start nm Changed: 2024-09-11 1:57:39 PM, Old:800.000, New:1400.000
X Stop nm Changed: 2024-09-11 1:57:39 PM, Old:200.000, New:300.000
UVVIS Scan Rate nm Changed: 2024-09-11 1:57:39 PM, Old:  602.007, New:  600.000
NIR Scan Rate nm Changed: 2024-09-11 1:57:39 PM, Old:    0.004, New:   12.000
Common Interval nm Changed: 2024-09-11 1:57:39 PM, Old:    1.000, New:    0.667
Source changeover Changed: 2024-09-11 1:57:39 PM, Old:   350.00, New:   300.00
Detector changeover Changed: 2024-09-11 1:57:39 PM, Old:   800.00, New:   900.00
Grating changeover Changed: 2024-09-11 1:57:39 PM, Old:   800.00, New:   900.00
Baseline Correction Changed: 2024-09-11 1:57:39 PM, Old:0, New:2
Sipper Type Changed: 2024-09-11 1:57:39 PM, Old:Internal RSA, New:External sipper
End Method Modifications
<Current Wavelength> , 298.667
<SBW (nm)> , 2.00
<Energy> , 72.44
<Slit Height> , Full

t=3hrs FeCl3 100uM,
t=3hrs FeCl3 100uM
Collection Time: 2024-09-11 2:31:18 PM
Operator Name  :
Scan Version 6.4.0.1610
Parameter List :
Instrument  Cary 7000
Instrument Version  3.07
Method Log     :
Method Name    :
Date/Time stamp: 2024-09-11 1:55:44 PM
Method Modifications:
ConcentrationReportSelected Changed: 2024-09-11 1:55:44 PM, Old:Choice 0, New:Choice 1
ConcentrationReportSelected Changed: 2024-09-11 1:55:44 PM, Old:ON, New:Choice 0
MCAReportSelected Changed: 2024-09-11 1:55:44 PM, Old:Choice 0, New:Choice 1
MCAReportSelected Changed: 2024-09-11 1:55:44 PM, Old:ON, New:Choice 0
X Start nm Changed: 2024-09-11 1:57:39 PM, Old:800.000, New:1400.000
X Stop nm Changed: 2024-09-11 1:57:39 PM, Old:200.000, New:300.000
UVVIS Scan Rate nm Changed: 2024-09-11 1:57:39 PM, Old:  602.007, New:  600.000
NIR Scan Rate nm Changed: 2024-09-11 1:57:39 PM, Old:    0.004, New:   12.000
Common Interval nm Changed: 2024-09-11 1:57:39 PM, Old:    1.000, New:    0.667
Source changeover Changed: 2024-09-11 1:57:39 PM, Old:   350.00, New:   300.00
Detector changeover Changed: 2024-09-11 1:57:39 PM, Old:   800.00, New:   900.00
Grating changeover Changed: 2024-09-11 1:57:39 PM, Old:   800.00, New:   900.00
Baseline Correction Changed: 2024-09-11 1:57:39 PM, Old:0, New:2
Sipper Type Changed: 2024-09-11 1:57:39 PM, Old:Internal RSA, New:External sipper
End Method Modifications
<Current Wavelength> , 300.000
<SBW (nm)> , 2.00
<Energy> , 72.44
<Slit Height> , Full