File: UV-Vis data/2024_09/2024_09_12_non-imine t=48hrs FeCl3 doping.csv
non-imine polymer t=48hrs FeCl3 0uM,,non-imine polymer t=48hrs FeCl3 5uM,,non-imine polymer t=48hrs FeCl3 20uM,,non-imine polymer t=48hrs FeCl3 50uM,,non-imine polymer t=48hrs FeCl3 100uM,,
Wavelength (nm),Abs,Wavelength (nm),Abs,Wavelength (nm),Abs,Wavelength (nm),Abs,Wavelength (nm),Abs,
1200,2.2159e-05,1200,-0.000887137,1200,-0.00145375,1200,-0.00168728,1200,-0.00236043,
1191.33,0.000128983,1191.33,-0.000817537,1191.33,-0.00151871,1191.33,-0.00161239,1191.33,-0.00238401,
1182.67,0.000412015,1182.67,-0.000883211,1182.67,-0.00153434,1182.67,-0.00128835,1182.67,-0.00223009,
1174,0.00102502,1174,-0.000714383,1174,-0.00104066,1174,-4.69028e-05,1174,-0.00131054,
1165.33,0.00126752,1165.33,-0.000523616,1165.33,-0.000781674,1165.33,0.00111162,1165.33,-0.000750303,
1156.67,0.000792419,1156.67,-0.0011694,1156.67,-0.00109231,1156.67,0.000879667,1156.67,-0.000561673,
1148,0.0015768,1148,-0.000496106,1148,-0.000891322,1148,0.000933934,1148,-6.96794e-05,
1139.33,0.00212135,1139.33,0.000887215,1139.33,0.00177448,1139.33,0.00161715,1139.33,0.00178197,
1130.67,0.00213212,1130.67,0.00115706,1130.67,0.00210234,1130.67,0.00174313,1130.67,0.00206397,
1122,0.00133365,1122,-2.41768e-05,1122,1.26841e-06,1122,7.01049e-05,1122,0.000229358,
1113.33,0.000909757,1113.33,-0.000489487,1113.33,-0.000737228,1113.33,-0.000833866,1113.33,-0.000375391,
1104.67,0.00071976,1104.67,-0.000606033,1104.67,-0.000981728,1104.67,-0.00106964,1104.67,-0.000426029,
1096,0.000676954,1096,-0.00061141,1096,-0.000889721,1096,-0.00096153,1096,-0.000388426,
1087.33,0.00051992,1087.33,-0.000637,1087.33,-0.000766583,1087.33,-0.000758624,1087.33,-0.000490676,
1078.67,0.000533423,1078.67,-0.000725082,1078.67,-0.00103798,1078.67,-0.000522272,1078.67,-0.000350096,
1070,0.000541095,1070,-0.000661142,1070,-0.0011442,1070,-0.000315539,1070,-0.000320091,
1061.33,0.000593634,1061.33,-0.000618648,1061.33,-0.00111456,1061.33,-5.59619e-05,1061.33,-0.000195085,
1052.67,0.000571057,1052.67,-0.00048566,1052.67,-0.00106814,1052.67,3.04689e-05,1052.67,-3.57225e-06,
1044,0.000639751,1044,-0.000434667,1044,-0.00107382,1044,-9.68545e-05,1044,0.000233813,
1035.33,0.000587361,1035.33,-0.00041915,1035.33,-0.00115494,1035.33,-0.000252781,1035.33,0.000413518,
1026.67,0.000538062,1026.67,-0.000416099,1026.67,-0.00115045,1026.67,-0.000221786,1026.67,0.00031538,
1018,0.000416057,1018,-0.000524806,1018,-0.00122666,1018,-0.000141573,1018,0.000303956,
1009.33,0.000410772,1009.33,-0.000510223,1009.33,-0.00104376,1009.33,-8.28343e-06,1009.33,0.000455184,
1000.67,0.000372788,1000.67,-0.000513119,1000.67,-0.000944845,1000.67,7.59043e-05,1000.67,0.000708533,
992,0.000403206,992,-0.000440666,992,-0.000838207,992,0.000175102,992,0.00106587,
983.333,0.000381753,983.333,-0.00051074,983.333,-0.000875667,983.333,0.000293387,983.333,0.00121819,
974.667,0.00025013,974.667,-0.000555727,974.667,-0.00101752,974.667,0.000119946,974.667,0.00104101,
966,-5.66348e-05,966,-0.000849523,966,-0.00190552,966,-0.00116821,966,-0.000330179,
957.333,0.000755129,957.333,-0.000120043,957.333,-0.000655766,957.333,0.000325198,957.333,0.00169204,
948.667,0.000788814,948.667,-0.000141211,948.667,-0.000579666,948.667,0.000176941,948.667,0.00177162,
940,0.000785054,940,-0.000357286,940,-0.000441339,940,0.000152469,940,0.00191143,
931.333,0.000698914,931.333,-0.000408961,931.333,-0.000349113,931.333,0.000166194,931.333,0.00206082,
922.667,0.00072479,922.667,-0.000410668,922.667,-0.00019229,922.667,0.000202942,922.667,0.00233182,
914,0.000731895,914,-0.000383978,914,-6.65736e-05,914,0.000248447,914,0.00256772,
905.333,0.000752924,905.333,-0.000334421,905.333,6.65275e-06,905.333,0.000332788,905.333,0.00294989,
896.667,0.00057015,896.667,0.00184313,896.667,0.00209464,896.667,0.0031569,896.667,0.0036228,
888,0.00381323,888,0.00227381,888,0.00125101,888,0.00311028,888,0.00739072,
879.333,0.00146736,879.333,0.00137961,879.333,0.00183109,879.333,0.00235784,879.333,0.00730829,
870.667,0.000977751,870.667,0.00192697,870.667,0.000694195,870.667,0.00204423,870.667,0.00698124,
862,0.00220384,862,0.00240386,862,0.00151082,862,0.00272052,862,0.00771167,
853.333,0.00163308,853.333,0.00275749,853.333,0.00168801,853.333,0.00327892,853.333,0.00849145,
844.667,0.00198865,844.667,0.00273657,844.667,0.0016759,844.667,0.00276572,844.667,0.00893882,
836,0.00197825,836,0.00290827,836,0.00207523,836,0.00313967,836,0.00939539,
827.333,0.00203247,827.333,0.00299696,827.333,0.00193147,827.333,0.00327454,827.333,0.010436,
818.667,0.00206714,818.667,0.00301153,818.667,0.00216391,818.667,0.00328555,818.667,0.0112354,
810,0.00198174,810,0.00288273,810,0.00205791,810,0.0032276,810,0.0118229,
801.333,0.00211136,801.333,0.00290911,801.333,0.00209461,801.333,0.00344909,801.333,0.0126428,
792.667,0.00214838,792.667,0.00269734,792.667,0.00193821,792.667,0.00450712,792.667,0.0136553,
784,0.00184204,784,0.00268987,784,0.00207547,784,0.00492576,784,0.0147063,
775.333,0.00200064,775.333,0.00261382,775.333,0.00218597,775.333,0.00512466,775.333,0.0156458,
766.667,0.00202881,766.667,0.00249505,766.667,0.00219099,766.667,0.00524066,766.667,0.0167323,
758,0.00189065,758,0.00241493,758,0.00214271,758,0.00503532,758,0.017675,
749.333,0.0019743,749.333,0.00244213,749.333,0.00209539,749.333,0.00502275,749.333,0.0187071,
740.667,0.00179943,740.667,0.00234548,740.667,0.00209942,740.667,0.00476593,740.667,0.0196199,
732,0.00181906,732,0.00222976,732,0.00190526,732,0.00454795,732,0.0203237,
723.333,0.00181165,723.333,0.00213761,723.333,0.00193043,723.333,0.00448541,723.333,0.0211183,
714.667,0.00181989,714.667,0.00216984,714.667,0.00190126,714.667,0.00442617,714.667,0.0217576,
706,0.00183099,706,0.00210772,706,0.00178571,706,0.00436569,706,0.022148,
697.333,0.00191943,697.333,0.00209401,697.333,0.00174176,697.333,0.00444566,697.333,0.0226946,
688.667,0.00202426,688.667,0.00216396,688.667,0.0018404,688.667,0.00463483,688.667,0.0231393,
680,0.00252205,680,0.0027019,680,0.00225994,680,0.00520238,680,0.0234712,
671.333,0.00279644,671.333,0.00302509,671.333,0.00256166,671.333,0.0056004,671.333,0.023886,
662.667,0.00238845,662.667,0.00257332,662.667,0.00215668,662.667,0.00527815,662.667,0.0240859,
654,0.00213459,654,0.00237229,654,0.00192778,654,0.00517618,654,0.0242052,
645.333,0.00208665,645.333,0.00230101,645.333,0.00180422,645.333,0.00521388,645.333,0.024009,
636.667,0.00225794,636.667,0.0024106,636.667,0.00189668,636.667,0.00526083,636.667,0.0237546,
628,0.00280613,628,0.00284227,628,0.00206254,628,0.00536717,628,0.0233642,
619.333,0.00335877,619.333,0.00340098,619.333,0.00236745,619.333,0.00551262,619.333,0.0228151,
610.667,0.00426841,610.667,0.00413521,610.667,0.00265895,610.667,0.00567165,610.667,0.0222892,
602,0.00543049,602,0.00517558,602,0.00318157,602,0.00570667,602,0.0217426,
593.333,0.00752855,593.333,0.00684311,593.333,0.00376699,593.333,0.00580078,593.333,0.021226,
584.667,0.012399,584.667,0.0106095,584.667,0.005015,584.667,0.00592974,584.667,0.0207554,
576,0.0255436,576,0.0200741,576,0.00738024,576,0.00623457,576,0.0200934,
567.333,0.0601283,567.333,0.0446742,567.333,0.0126042,567.333,0.00677713,567.333,0.0196199,
558.667,0.132618,558.667,0.0985433,558.667,0.0228618,558.667,0.00772313,558.667,0.0194299,
550,0.241749,550,0.185557,550,0.0405854,550,0.0092664,550,0.0197177,
541.333,0.362938,541.333,0.291443,541.333,0.0666118,541.333,0.0120967,541.333,0.0205777,
532.667,0.469716,532.667,0.394801,532.667,0.100653,532.667,0.0169175,532.667,0.0222518,
524,0.560959,524,0.489106,524,0.142163,524,0.0252236,524,0.0259745,
515.333,0.641541,515.333,0.575329,515.333,0.189125,515.333,0.0377071,515.333,0.0324906,
506.667,0.706877,506.667,0.650948,506.667,0.240858,506.667,0.0555223,506.667,0.0427706,
498,0.747573,498,0.708439,498,0.297341,498,0.0787938,498,0.0566081,
489.333,0.761747,489.333,0.743826,489.333,0.357053,489.333,0.106383,489.333,0.0728678,
480.667,0.754787,480.667,0.758702,480.667,0.415708,480.667,0.137113,480.667,0.0915549,
472,0.731251,472,0.756319,472,0.47122,472,0.170502,472,0.113834,
463.333,0.694179,463.333,0.739762,463.333,0.523493,463.333,0.206273,463.333,0.139883,
454.667,0.646637,454.667,0.709301,454.667,0.564812,454.667,0.24435,454.667,0.170631,
446,0.591685,446,0.665333,446,0.585411,446,0.285031,446,0.208467,
437.333,0.534568,437.333,0.61504,437.333,0.592171,437.333,0.326293,437.333,0.253027,
428.667,0.480189,428.667,0.56398,428.667,0.588881,428.667,0.358858,428.667,0.293434,
420,0.426878,420,0.509973,420,0.567154,420,0.376644,420,0.32395,
411.333,0.377107,411.333,0.456116,411.333,0.534072,411.333,0.389532,411.333,0.355701,
402.667,0.333375,402.667,0.40622,402.667,0.49815,402.667,0.397824,402.667,0.388738,
394,0.290023,394,0.356223,394,0.452487,394,0.391301,394,0.417631,
385.333,0.249395,385.333,0.308319,385.333,0.406116,385.333,0.379022,385.333,0.451967,
376.667,0.218019,376.667,0.271542,376.667,0.367404,376.667,0.368242,376.667,0.492603,
368,0.200422,368,0.250539,368,0.334272,368,0.356458,368,0.536569,
359.333,0.191939,359.333,0.243267,359.333,0.315136,359.333,0.349356,359.333,0.574301,
350.667,0.184057,350.667,0.238152,350.667,0.305279,350.667,0.345602,350.667,0.596283,
342,0.176889,342,0.228777,342,0.294383,342,0.343093,342,0.603903,
333.333,0.17102,333.333,0.22036,333.333,0.289206,333.333,0.345562,333.333,0.605094,
324.667,0.16483,324.667,0.209132,324.667,0.279682,324.667,0.344463,324.667,0.592887,
316,0.159229,316,0.198277,316,0.272121,316,0.344854,316,0.578166,
307.333,0.155023,307.333,0.190493,307.333,0.275346,307.333,0.346106,307.333,0.565276,
298.667,0.155231,298.667,0.190507,298.667,0.290882,298.667,0.348764,298.667,0.555455,
290,0.162899,290,0.201533,290,0.331062,290,0.350172,290,0.550385,
281.333,0.224274,281.333,0.28894,281.333,0.454373,281.333,0.459331,281.333,0.687391,
272.667,2.83426,272.667,3.88516,272.667,4.89054,272.667,4.53709,272.667,4.93823,
264,4.13165,264,5.14132,264,5.31554,264,5.16978,264,5.23913,
255.333,3.01808,255.333,4.39772,255.333,4.74954,255.333,4.66583,255.333,4.74113,
250.667,2.34836,250.667,3.54907,250.667,4.36716,250.667,4.20785,250.667,4.34474,

non-imine polymer t=48hrs FeCl3 0uM,
non-imine polymer t=48hrs FeCl3 0uM
Collection Time: 2024-09-12 8:54:20 AM
Operator Name  :
Scan Version 6.4.0.1610
Parameter List :
Instrument  Cary 7000
Instrument Version  3.07
Method Log     :
Method Name    :
Date/Time stamp: 2024-09-12 8:41:50 AM
Method Modifications:
ConcentrationReportSelected Changed: 2024-09-12 8:41:51 AM, Old:Choice 0, New:Choice 1
ConcentrationReportSelected Changed: 2024-09-12 8:41:51 AM, Old:ON, New:Choice 0
MCAReportSelected Changed: 2024-09-12 8:41:51 AM, Old:Choice 0, New:Choice 1
MCAReportSelected Changed: 2024-09-12 8:41:51 AM, Old:ON, New:Choice 0
X Start nm Changed: 2024-09-12 8:45:07 AM, Old:800.000, New:1200.000
X Stop nm Changed: 2024-09-12 8:45:07 AM, Old:200.000, New:250.000
UVVIS Scan Rate nm Changed: 2024-09-12 8:45:07 AM, Old:  602.007, New:  600.000
NIR Scan Rate nm Changed: 2024-09-12 8:45:07 AM, Old:    0.004, New:   12.000
Common Interval nm Changed: 2024-09-12 8:45:07 AM, Old:    1.000, New:    0.667
Source changeover Changed: 2024-09-12 8:45:07 AM, Old:   350.00, New:   300.00
Detector changeover Changed: 2024-09-12 8:45:07 AM, Old:   800.00, New:   900.00
Grating changeover Changed: 2024-09-12 8:45:07 AM, Old:   800.00, New:   900.00
Baseline Correction Changed: 2024-09-12 8:45:07 AM, Old:0, New:2
Sipper Type Changed: 2024-09-12 8:45:07 AM, Old:Internal RSA, New:External sipper
End Method Modifications
<Current Wavelength> , 250.000
<SBW (nm)> , 2.00
<Energy> , 52.48
<Slit Height> , Full

non-imine polymer t=48hrs FeCl3 5uM,
non-imine polymer t=48hrs FeCl3 5uM
Collection Time: 2024-09-12 8:58:32 AM
Operator Name  :
Scan Version 6.4.0.1610
Parameter List :
Instrument  Cary 7000
Instrument Version  3.07
Method Log     :
Method Name    :
Date/Time stamp: 2024-09-12 8:41:50 AM
Method Modifications:
ConcentrationReportSelected Changed: 2024-09-12 8:41:51 AM, Old:Choice 0, New:Choice 1
ConcentrationReportSelected Changed: 2024-09-12 8:41:51 AM, Old:ON, New:Choice 0
MCAReportSelected Changed: 2024-09-12 8:41:51 AM, Old:Choice 0, New:Choice 1
MCAReportSelected Changed: 2024-09-12 8:41:51 AM, Old:ON, New:Choice 0
X Start nm Changed: 2024-09-12 8:45:07 AM, Old:800.000, New:1200.000
X Stop nm Changed: 2024-09-12 8:45:07 AM, Old:200.000, New:250.000
UVVIS Scan Rate nm Changed: 2024-09-12 8:45:07 AM, Old:  602.007, New:  600.000
NIR Scan Rate nm Changed: 2024-09-12 8:45:07 AM, Old:    0.004, New:   12.000
Common Interval nm Changed: 2024-09-12 8:45:07 AM, Old:    1.000, New:    0.667
Source changeover Changed: 2024-09-12 8:45:07 AM, Old:   350.00, New:   300.00
Detector changeover Changed: 2024-09-12 8:45:07 AM, Old:   800.00, New:   900.00
Grating changeover Changed: 2024-09-12 8:45:07 AM, Old:   800.00, New:   900.00
Baseline Correction Changed: 2024-09-12 8:45:07 AM, Old:0, New:2
Sipper Type Changed: 2024-09-12 8:45:07 AM, Old:Internal RSA, New:External sipper
End Method Modifications
<Current Wavelength> , 250.000
<SBW (nm)> , 2.00
<Energy> , 52.48
<Slit Height> , Full

non-imine polymer t=48hrs FeCl3 20uM,
non-imine polymer t=48hrs FeCl3 20uM
Collection Time: 2024-09-12 9:02:40 AM
Operator Name  :
Scan Version 6.4.0.1610
Parameter List :
Instrument  Cary 7000
Instrument Version  3.07
Method Log     :
Method Name    :
Date/Time stamp: 2024-09-12 8:41:50 AM
Method Modifications:
ConcentrationReportSelected Changed: 2024-09-12 8:41:51 AM, Old:Choice 0, New:Choice 1
ConcentrationReportSelected Changed: 2024-09-12 8:41:51 AM, Old:ON, New:Choice 0
MCAReportSelected Changed: 2024-09-12 8:41:51 AM, Old:Choice 0, New:Choice 1
MCAReportSelected Changed: 2024-09-12 8:41:51 AM, Old:ON, New:Choice 0
X Start nm Changed: 2024-09-12 8:45:07 AM, Old:800.000, New:1200.000
X Stop nm Changed: 2024-09-12 8:45:07 AM, Old:200.000, New:250.000
UVVIS Scan Rate nm Changed: 2024-09-12 8:45:07 AM, Old:  602.007, New:  600.000
NIR Scan Rate nm Changed: 2024-09-12 8:45:07 AM, Old:    0.004, New:   12.000
Common Interval nm Changed: 2024-09-12 8:45:07 AM, Old:    1.000, New:    0.667
Source changeover Changed: 2024-09-12 8:45:07 AM, Old:   350.00, New:   300.00
Detector changeover Changed: 2024-09-12 8:45:07 AM, Old:   800.00, New:   900.00
Grating changeover Changed: 2024-09-12 8:45:07 AM, Old:   800.00, New:   900.00
Baseline Correction Changed: 2024-09-12 8:45:07 AM, Old:0, New:2
Sipper Type Changed: 2024-09-12 8:45:07 AM, Old:Internal RSA, New:External sipper
End Method Modifications
<Current Wavelength> , 250.000
<SBW (nm)> , 2.00
<Energy> , 52.48
<Slit Height> , Full

non-imine polymer t=48hrs FeCl3 50uM,
non-imine polymer t=48hrs FeCl3 50uM
Collection Time: 2024-09-12 9:06:40 AM
Operator Name  :
Scan Version 6.4.0.1610
Parameter List :
Instrument  Cary 7000
Instrument Version  3.07
Method Log     :
Method Name    :
Date/Time stamp: 2024-09-12 8:41:50 AM
Method Modifications:
ConcentrationReportSelected Changed: 2024-09-12 8:41:51 AM, Old:Choice 0, New:Choice 1
ConcentrationReportSelected Changed: 2024-09-12 8:41:51 AM, Old:ON, New:Choice 0
MCAReportSelected Changed: 2024-09-12 8:41:51 AM, Old:Choice 0, New:Choice 1
MCAReportSelected Changed: 2024-09-12 8:41:51 AM, Old:ON, New:Choice 0
X Start nm Changed: 2024-09-12 8:45:07 AM, Old:800.000, New:1200.000
X Stop nm Changed: 2024-09-12 8:45:07 AM, Old:200.000, New:250.000
UVVIS Scan Rate nm Changed: 2024-09-12 8:45:07 AM, Old:  602.007, New:  600.000
NIR Scan Rate nm Changed: 2024-09-12 8:45:07 AM, Old:    0.004, New:   12.000
Common Interval nm Changed: 2024-09-12 8:45:07 AM, Old:    1.000, New:    0.667
Source changeover Changed: 2024-09-12 8:45:07 AM, Old:   350.00, New:   300.00
Detector changeover Changed: 2024-09-12 8:45:07 AM, Old:   800.00, New:   900.00
Grating changeover Changed: 2024-09-12 8:45:07 AM, Old:   800.00, New:   900.00
Baseline Correction Changed: 2024-09-12 8:45:07 AM, Old:0, New:2
Sipper Type Changed: 2024-09-12 8:45:07 AM, Old:Internal RSA, New:External sipper
End Method Modifications
<Current Wavelength> , 250.000
<SBW (nm)> , 2.00
<Energy> , 52.48
<Slit Height> , Full

non-imine polymer t=48hrs FeCl3 100uM,
non-imine polymer t=48hrs FeCl3 100uM
Collection Time: 2024-09-12 9:10:50 AM
Operator Name  :
Scan Version 6.4.0.1610
Parameter List :
Instrument  Cary 7000
Instrument Version  3.07
Method Log     :
Method Name    :
Date/Time stamp: 2024-09-12 8:41:50 AM
Method Modifications:
ConcentrationReportSelected Changed: 2024-09-12 8:41:51 AM, Old:Choice 0, New:Choice 1
ConcentrationReportSelected Changed: 2024-09-12 8:41:51 AM, Old:ON, New:Choice 0
MCAReportSelected Changed: 2024-09-12 8:41:51 AM, Old:Choice 0, New:Choice 1
MCAReportSelected Changed: 2024-09-12 8:41:51 AM, Old:ON, New:Choice 0
X Start nm Changed: 2024-09-12 8:45:07 AM, Old:800.000, New:1200.000
X Stop nm Changed: 2024-09-12 8:45:07 AM, Old:200.000, New:250.000
UVVIS Scan Rate nm Changed: 2024-09-12 8:45:07 AM, Old:  602.007, New:  600.000
NIR Scan Rate nm Changed: 2024-09-12 8:45:07 AM, Old:    0.004, New:   12.000
Common Interval nm Changed: 2024-09-12 8:45:07 AM, Old:    1.000, New:    0.667
Source changeover Changed: 2024-09-12 8:45:07 AM, Old:   350.00, New:   300.00
Detector changeover Changed: 2024-09-12 8:45:07 AM, Old:   800.00, New:   900.00
Grating changeover Changed: 2024-09-12 8:45:07 AM, Old:   800.00, New:   900.00
Baseline Correction Changed: 2024-09-12 8:45:07 AM, Old:0, New:2
Sipper Type Changed: 2024-09-12 8:45:07 AM, Old:Internal RSA, New:External sipper
End Method Modifications
<Current Wavelength> , 250.000
<SBW (nm)> , 2.00
<Energy> , 52.48
<Slit Height> , Full