File: UV-Vis data/2024_09/2024_09_06_imine 48hrs post neutralization.csv
imine polymer 0% TFA,,imine polymer 0.017% TFA,,imine polymer 0.05% TFA,,imine polymer 0.25% TFA,,imine polymer 1.0% TFA,,
Wavelength (nm),Abs,Wavelength (nm),Abs,Wavelength (nm),Abs,Wavelength (nm),Abs,Wavelength (nm),Abs,
1400,0.000319421,1400,0.0040426,1400,0.00364156,1400,0.0076966,1400,0.00639413,
1390,0.000493615,1390,0.00167637,1390,0.00148684,1390,0.00608389,1390,0.00595937,
1380,0.000481565,1380,0.00143362,1380,0.00107552,1380,0.00445128,1380,0.00536678,
1370,0.000406548,1370,0.00136423,1370,0.00101641,1370,0.00383587,1370,0.00530412,
1360,0.000500923,1360,0.00105668,1360,0.000713096,1360,0.00292797,1360,0.00408433,
1350,0.000403543,1350,0.000517588,1350,2.20554e-05,1350,0.00139547,1350,0.00292078,
1340,0.000321726,1340,0.000180048,1340,-0.000301881,1340,0.000225733,1340,0.000516784,
1330,0.000416653,1330,0.000189863,1330,-0.000337991,1330,0.000168809,1330,0.000175206,
1320,0.000501571,1320,0.000235756,1320,-0.000242691,1320,0.000172746,1320,4.31541e-05,
1310,0.000561182,1310,0.00025873,1310,-0.000185252,1310,0.000259092,1310,6.8422e-05,
1300,0.00055338,1300,0.000243655,1300,-0.000159325,1300,0.000302583,1300,-6.96794e-05,
1290,0.000562296,1290,0.000295641,1290,-7.41828e-05,1290,0.000604003,1290,0.000117279,
1280,0.000591094,1280,0.000345767,1280,1.4134e-05,1280,0.000813607,1280,0.000174248,
1270,0.000572224,1270,0.000391987,1270,2.2159e-05,1270,0.000877462,1270,0.000197166,
1260,0.000566418,1260,0.000478196,1260,5.20857e-05,1260,0.000798487,1260,0.000174947,
1250,0.000551022,1250,0.000544801,1250,6.82408e-05,1250,0.000714471,1250,0.000182016,
1240,0.000506158,1240,0.000611961,1240,5.63056e-05,1240,0.000642706,1240,0.000211514,
1230,0.000488743,1230,0.00068652,1230,0.0001042812,1230,0.000695051,1230,0.000228271,
1220,0.000476952,1220,0.000747894,1220,0.000142344,1220,0.000871834,1220,0.00038424,
1210,0.00049289,1210,0.000768302,1210,0.000175024,1210,0.0013229,1210,0.000625493,
1200,0.000501986,1200,0.000795453,1200,0.000264661,1200,0.0019186,1200,0.00106724,
1190,0.000546045,1190,0.000829375,1190,0.000463399,1190,0.00351286,1190,0.00211118,
1180,0.000622097,1180,0.00108868,1180,0.000759822,1180,0.00441629,1180,0.00603005,
1170,0.000524171,1170,0.00094099,1170,0.000385043,1170,0.00276056,1170,0.00437469,
1160,0.000507662,1160,0.000847038,1160,0.000136182,1160,0.00141578,1160,0.00218748,
1150,0.000455936,1150,0.000816952,1150,9.26299e-05,1150,0.000198824,1150,-0.00106881,
1140,0.000381856,1140,-0.000275495,1140,-0.000991232,1140,-0.00395553,1140,-0.00913968,
1130,-5.08888e-05,1130,-0.000320402,1130,-0.00125232,1130,-0.00354276,1130,-0.00614034,
1120,0.000326933,1120,0.000554547,1120,-0.000391892,1120,-0.000698566,1120,-0.00102961,
1110,0.000369964,1110,0.000816563,1110,-0.000187115,1110,1.74993e-05,1110,-6.11901e-05,
1100,0.000364109,1100,0.000941249,1100,-0.000176713,1100,0.000123701,1100,-4.57122e-05,
1090,0.000307867,1090,0.00107866,1090,-0.000212368,1090,0.000186471,1090,1.86124e-05,
1080,0.000360664,1080,0.00137244,1080,-0.00013764,1080,0.000348902,1080,0.000148222,
1070,0.000393801,1070,0.00163085,1070,-0.000107569,1070,0.000488691,1070,0.000264402,
1060,0.00042181,1060,0.00186793,1060,-8.86245e-05,1060,0.000594049,1060,0.00032284,
1050,0.000385665,1050,0.00211313,1050,-0.000123924,1050,0.000708274,1050,0.000419763,
1040,0.000362684,1040,0.00240428,1040,-0.000117041,1040,0.00078744,1040,0.000516784,
1030,0.000368358,1030,0.00268101,1030,-0.0001468,1030,0.000795375,1030,0.000647761,
1020,0.000384162,1020,0.00306382,1020,-0.000188719,1020,0.00082494,1020,0.000831735,
1010,0.000375794,1010,0.00344481,1010,-0.000205072,1010,0.000890432,1010,0.0010497,
1000,0.000371726,1000,0.00380435,1000,-0.000159791,1000,0.000825148,1000,0.00116719,
990,0.000385639,990,0.00419799,990,-0.000148301,990,0.00090296,990,0.0013022,
980,0.000310302,980,0.0045027,980,-0.000191255,980,0.000884907,980,0.0013613,
970,0.000224904,970,0.00481713,970,-0.000237723,970,0.000851732,970,0.00148495,
960,0.000199756,960,0.00526937,960,-0.000153114,960,0.0009935,960,0.0017351,
950,0.000221381,950,0.00562618,950,-0.000165587,950,0.000963456,950,0.00197898,
940,0.000304215,940,0.0060809,940,-7.1957e-05,940,0.000963768,940,0.00227412,
930,0.000321856,930,0.00655399,930,-6.26913e-05,930,0.000937332,930,0.00258225,
920,0.000322814,920,0.00710497,920,1.65671e-06,920,0.000936606,920,0.00295615,
910,0.000287429,910,0.00777763,910,2.69222e-05,910,0.00101657,910,0.00344794,
900,0.000263547,900,0.0085768,900,5.72635e-05,900,0.000947112,900,0.00427583,
890,1.07169e-05,890,0.00944028,890,0.000643095,890,-6.45548e-05,890,0.00528384,
880,-0.000433012,880,0.0113438,880,-9.19372e-05,880,0.000137424,880,0.00597906,
870,0.000314214,870,0.0117708,870,0.000287352,870,-0.000100788,870,0.00585318,
860,0.000329446,860,0.0133898,860,0.000589539,860,0.000595034,860,0.00712042,
850,0.000449043,850,0.0144588,850,0.000712604,850,0.000575619,850,0.00818789,
840,0.000683072,840,0.0160327,840,0.000890587,840,0.000781034,840,0.00929676,
830,0.00041129,830,0.0170744,830,0.000793949,830,0.000670835,830,0.0100228,
820,0.000444975,820,0.0179836,820,0.000753365,820,0.000750046,820,0.0103098,
810,0.000576656,810,0.018919,810,0.000900496,810,0.000876114,810,0.0109489,
800,0.000472158,800,0.0196113,800,0.000829324,800,0.000684913,800,0.0110588,
790,0.000504059,790,0.0204311,790,0.000982863,790,0.000764256,790,0.0113457,
780,0.000455392,780,0.0214419,780,0.000990101,780,0.000835548,780,0.011865,
770,0.000575542,770,0.0228408,770,0.00111704,770,0.00100678,770,0.0125193,
760,0.000511705,760,0.0241665,760,0.00109696,760,0.00102832,760,0.0132063,
750,0.000587413,750,0.0258101,750,0.0013028,750,0.00121856,750,0.0141707,
740,0.00067322,740,0.0276754,740,0.00147001,740,0.00134037,740,0.0152256,
730,0.000622434,730,0.0294497,730,0.00156327,730,0.00143822,730,0.0161419,
720,0.000604781,720,0.0311033,720,0.00159969,720,0.00151991,720,0.0171896,
710,0.000681646,710,0.0325656,710,0.00169144,710,0.00151874,710,0.0179846,
700,0.00073358,700,0.0333241,700,0.00178324,700,0.00167621,700,0.0187042,
690,0.000824837,690,0.0328935,690,0.001832,690,0.00178846,690,0.0188403,
680,0.000984912,680,0.031659,680,0.00191845,680,0.00202277,680,0.0187425,
670,0.00104407,670,0.0299542,670,0.00195607,670,0.00215225,670,0.018207,
660,0.000969839,660,0.0283984,660,0.00196468,660,0.00215012,660,0.0175869,
650,0.00100987,650,0.0273304,650,0.00199908,650,0.0023503,650,0.0172735,
640,0.001196,640,0.0266884,640,0.00215356,640,0.00265278,640,0.0173084,
630,0.00136953,630,0.0261884,630,0.00227334,630,0.00292336,630,0.0173551,
620,0.00166741,620,0.0259676,620,0.00256048,620,0.00336211,620,0.0176842,
610,0.00231438,610,0.0259782,610,0.00293501,610,0.00404639,610,0.0181398,
600,0.00341718,600,0.0262037,600,0.00345139,600,0.00501969,600,0.0187127,
590,0.00573576,590,0.0267489,590,0.0044386,590,0.00674868,590,0.0196064,
580,0.0116426,580,0.0274597,580,0.00625802,580,0.0104328,580,0.0206575,
570,0.0265727,570,0.0282171,570,0.00978194,570,0.0187029,570,0.021731,
560,0.0633886,560,0.0291164,560,0.0163333,560,0.0371742,560,0.02286,
550,0.141713,550,0.030081,550,0.0279534,550,0.0735846,550,0.0241265,
540,0.271669,540,0.0313325,540,0.0472784,540,0.130496,540,0.0254678,
530,0.427482,530,0.0326235,530,0.0757091,530,0.196429,530,0.0268827,
520,0.573764,520,0.0341636,520,0.113554,520,0.259342,520,0.028383,
510,0.70328,510,0.0359044,510,0.157046,510,0.317868,510,0.0298347,
500,0.822508,500,0.0380745,500,0.201966,500,0.37274,500,0.0314301,
490,0.911527,490,0.0408404,490,0.244586,490,0.414337,490,0.0332286,
480,0.951279,480,0.0433888,480,0.284671,480,0.437557,480,0.0349834,
470,0.948824,470,0.0451928,470,0.321421,470,0.446512,470,0.0365811,
460,0.915829,460,0.047258,460,0.347477,460,0.442398,460,0.038455,
450,0.855633,450,0.0497641,450,0.355629,450,0.424044,450,0.0406789,
440,0.778977,440,0.0518676,440,0.353311,440,0.398018,440,0.0434336,
430,0.69887,430,0.0541511,430,0.345233,430,0.370171,430,0.0475111,
420,0.623323,420,0.0569837,420,0.324161,420,0.33999,420,0.0532213,
410,0.557999,410,0.0613508,410,0.298222,410,0.312315,410,0.0606544,
400,0.510427,400,0.0684709,400,0.282399,400,0.29442,400,0.0701301,
390,0.488512,390,0.080464,390,0.276954,390,0.289355,390,0.0834607,
380,0.504222,380,0.10685,380,0.298301,380,0.309578,380,0.108371,
370,0.555724,370,0.202756,370,0.389866,370,0.385728,370,0.199826,
360,0.595763,360,0.664928,360,0.658012,360,0.628012,360,0.660947,
350,0.588049,350,1.32939,350,0.99009,350,0.937761,350,1.33795,
340,0.534582,340,1.26338,340,0.956821,340,0.893952,340,1.27395,
330,0.439884,330,1.35112,330,0.956304,330,0.897261,330,1.37059,
320,0.338503,320,0.9664,320,0.716375,320,0.669746,320,0.980721,
310,0.254207,310,0.700861,310,0.534001,310,0.490903,310,0.702949,
300,0.200736,300,0.522726,300,0.412005,300,0.36153,300,0.50492,

imine polymer 0% TFA,
imine polymer 0% TFA
Collection Time: 2024-09-06 2:37:56 PM
Operator Name  :
Scan Version 6.4.0.1610
Parameter List :
Instrument  Cary 7000
Instrument Version  3.07
Method Log     :
Method Name    :
Date/Time stamp: 2024-09-06 2:24:00 PM
Method Modifications:
ConcentrationReportSelected Changed: 2024-09-06 2:24:01 PM, Old:Choice 0, New:Choice 1
ConcentrationReportSelected Changed: 2024-09-06 2:24:01 PM, Old:ON, New:Choice 0
MCAReportSelected Changed: 2024-09-06 2:24:01 PM, Old:Choice 0, New:Choice 1
MCAReportSelected Changed: 2024-09-06 2:24:01 PM, Old:ON, New:Choice 0
X Start nm Changed: 2024-09-06 2:26:10 PM, Old:800.000, New:1400.000
X Stop nm Changed: 2024-09-06 2:26:10 PM, Old:200.000, New:300.000
UVVIS Scan Rate nm Changed: 2024-09-06 2:26:10 PM, Old:  602.007, New:  600.000
NIR Scan Rate nm Changed: 2024-09-06 2:26:10 PM, Old:    0.004, New:   12.000
Common Interval nm Changed: 2024-09-06 2:26:10 PM, Old:    1.000, New:    0.667
Source changeover Changed: 2024-09-06 2:26:10 PM, Old:   350.00, New:   300.00
Detector changeover Changed: 2024-09-06 2:26:10 PM, Old:   800.00, New:   900.00
Grating changeover Changed: 2024-09-06 2:26:10 PM, Old:   800.00, New:   900.00
Baseline Correction Changed: 2024-09-06 2:26:10 PM, Old:0, New:2
Sipper Type Changed: 2024-09-06 2:26:10 PM, Old:Internal RSA, New:External sipper
End Method Modifications
<Current Wavelength> , 300.000
<SBW (nm)> , 2.00
<Energy> , 45.71
<Slit Height> , Full

imine polymer 0.017% TFA,
imine polymer 0.017% TFA
Collection Time: 2024-09-06 2:42:32 PM
Operator Name  :
Scan Version 6.4.0.1610
Parameter List :
Instrument  Cary 7000
Instrument Version  3.07
Method Log     :
Method Name    :
Date/Time stamp: 2024-09-06 2:24:00 PM
Method Modifications:
ConcentrationReportSelected Changed: 2024-09-06 2:24:01 PM, Old:Choice 0, New:Choice 1
ConcentrationReportSelected Changed: 2024-09-06 2:24:01 PM, Old:ON, New:Choice 0
MCAReportSelected Changed: 2024-09-06 2:24:01 PM, Old:Choice 0, New:Choice 1
MCAReportSelected Changed: 2024-09-06 2:24:01 PM, Old:ON, New:Choice 0
X Start nm Changed: 2024-09-06 2:26:10 PM, Old:800.000, New:1400.000
X Stop nm Changed: 2024-09-06 2:26:10 PM, Old:200.000, New:300.000
UVVIS Scan Rate nm Changed: 2024-09-06 2:26:10 PM, Old:  602.007, New:  600.000
NIR Scan Rate nm Changed: 2024-09-06 2:26:10 PM, Old:    0.004, New:   12.000
Common Interval nm Changed: 2024-09-06 2:26:10 PM, Old:    1.000, New:    0.667
Source changeover Changed: 2024-09-06 2:26:10 PM, Old:   350.00, New:   300.00
Detector changeover Changed: 2024-09-06 2:26:10 PM, Old:   800.00, New:   900.00
Grating changeover Changed: 2024-09-06 2:26:10 PM, Old:   800.00, New:   900.00
Baseline Correction Changed: 2024-09-06 2:26:10 PM, Old:0, New:2
Sipper Type Changed: 2024-09-06 2:26:10 PM, Old:Internal RSA, New:External sipper
End Method Modifications
<Current Wavelength> , 300.000
<SBW (nm)> , 2.00
<Energy> , 45.71
<Slit Height> , Full

imine polymer 0.05% TFA,
imine polymer 0.05% TFA
Collection Time: 2024-09-06 2:47:10 PM
Operator Name  :
Scan Version 6.4.0.1610
Parameter List :
Instrument  Cary 7000
Instrument Version  3.07
Method Log     :
Method Name    :
Date/Time stamp: 2024-09-06 2:24:00 PM
Method Modifications:
ConcentrationReportSelected Changed: 2024-09-06 2:24:01 PM, Old:Choice 0, New:Choice 1
ConcentrationReportSelected Changed: 2024-09-06 2:24:01 PM, Old:ON, New:Choice 0
MCAReportSelected Changed: 2024-09-06 2:24:01 PM, Old:Choice 0, New:Choice 1
MCAReportSelected Changed: 2024-09-06 2:24:01 PM, Old:ON, New:Choice 0
X Start nm Changed: 2024-09-06 2:26:10 PM, Old:800.000, New:1400.000
X Stop nm Changed: 2024-09-06 2:26:10 PM, Old:200.000, New:300.000
UVVIS Scan Rate nm Changed: 2024-09-06 2:26:10 PM, Old:  602.007, New:  600.000
NIR Scan Rate nm Changed: 2024-09-06 2:26:10 PM, Old:    0.004, New:   12.000
Common Interval nm Changed: 2024-09-06 2:26:10 PM, Old:    1.000, New:    0.667
Source changeover Changed: 2024-09-06 2:26:10 PM, Old:   350.00, New:   300.00
Detector changeover Changed: 2024-09-06 2:26:10 PM, Old:   800.00, New:   900.00
Grating changeover Changed: 2024-09-06 2:26:10 PM, Old:   800.00, New:   900.00
Baseline Correction Changed: 2024-09-06 2:26:10 PM, Old:0, New:2
Sipper Type Changed: 2024-09-06 2:26:10 PM, Old:Internal RSA, New:External sipper
End Method Modifications
<Current Wavelength> , 300.000
<SBW (nm)> , 2.00
<Energy> , 45.71
<Slit Height> , Full

imine polymer 0.25% TFA,
imine polymer 0.25% TFA
Collection Time: 2024-09-06 2:51:50 PM
Operator Name  :
Scan Version 6.4.0.1610
Parameter List :
Instrument  Cary 7000
Instrument Version  3.07
Method Log     :
Method Name    :
Date/Time stamp: 2024-09-06 2:24:00 PM
Method Modifications:
ConcentrationReportSelected Changed: 2024-09-06 2:24:01 PM, Old:Choice 0, New:Choice 1
ConcentrationReportSelected Changed: 2024-09-06 2:24:01 PM, Old:ON, New:Choice 0
MCAReportSelected Changed: 2024-09-06 2:24:01 PM, Old:Choice 0, New:Choice 1
MCAReportSelected Changed: 2024-09-06 2:24:01 PM, Old:ON, New:Choice 0
X Start nm Changed: 2024-09-06 2:26:10 PM, Old:800.000, New:1400.000
X Stop nm Changed: 2024-09-06 2:26:10 PM, Old:200.000, New:300.000
UVVIS Scan Rate nm Changed: 2024-09-06 2:26:10 PM, Old:  602.007, New:  600.000
NIR Scan Rate nm Changed: 2024-09-06 2:26:10 PM, Old:    0.004, New:   12.000
Common Interval nm Changed: 2024-09-06 2:26:10 PM, Old:    1.000, New:    0.667
Source changeover Changed: 2024-09-06 2:26:10 PM, Old:   350.00, New:   300.00
Detector changeover Changed: 2024-09-06 2:26:10 PM, Old:   800.00, New:   900.00
Grating changeover Changed: 2024-09-06 2:26:10 PM, Old:   800.00, New:   900.00
Baseline Correction Changed: 2024-09-06 2:26:10 PM, Old:0, New:2
Sipper Type Changed: 2024-09-06 2:26:10 PM, Old:Internal RSA, New:External sipper
End Method Modifications
<Current Wavelength> , 300.000
<SBW (nm)> , 2.00
<Energy> , 45.71
<Slit Height> , Full

imine polymer 1.0% TFA,
imine polymer 1.0% TFA
Collection Time: 2024-09-06 2:56:30 PM
Operator Name  :
Scan Version 6.4.0.1610
Parameter List :
Instrument  Cary 7000
Instrument Version  3.07
Method Log     :
Method Name    :
Date/Time stamp: 2024-09-06 2:24:00 PM
Method Modifications:
ConcentrationReportSelected Changed: 2024-09-06 2:24:01 PM, Old:Choice 0, New:Choice 1
ConcentrationReportSelected Changed: 2024-09-06 2:24:01 PM, Old:ON, New:Choice 0
MCAReportSelected Changed: 2024-09-06 2:24:01 PM, Old:Choice 0, New:Choice 1
MCAReportSelected Changed: 2024-09-06 2:24:01 PM, Old:ON, New:Choice 0
X Start nm Changed: 2024-09-06 2:26:10 PM, Old:800.000, New:1400.000
X Stop nm Changed: 2024-09-06 2:26:10 PM, Old:200.000, New:300.000
UVVIS Scan Rate nm Changed: 2024-09-06 2:26:10 PM, Old:  602.007, New:  600.000
NIR Scan Rate nm Changed: 2024-09-06 2:26:10 PM, Old:    0.004, New:   12.000
Common Interval nm Changed: 2024-09-06 2:26:10 PM, Old:    1.000, New:    0.667
Source changeover Changed: 2024-09-06 2:26:10 PM, Old:   350.00, New:   300.00
Detector changeover Changed: 2024-09-06 2:26:10 PM, Old:   800.00, New:   900.00
Grating changeover Changed: 2024-09-06 2:26:10 PM, Old:   800.00, New:   900.00
Baseline Correction Changed: 2024-09-06 2:26:10 PM, Old:0, New:2
Sipper Type Changed: 2024-09-06 2:26:10 PM, Old:Internal RSA, New:External sipper
End Method Modifications
<Current Wavelength> , 298.667
<SBW (nm)> , 2.00
<Energy> , 45.71
<Slit Height> , Full