File: templates/ExpDat_2024_03_27_PS-SCF3_P40042_rGPC_Mn_1200_350C-isotherm.csv
#EXPORTTYPE:                 ,DATA ALL
#FILE:                       ,2024_03_27_PS-SCF3_P40042_rGPC_Mn_1200_350C_isotherm_1pt_min_SCB_with_100C_stabilization.ngb-ss5
#FORMAT:                     ,NETZSCH5
#FTYPE:                      ,ANSI
#IDENTITY:                   ,polystyrene-scf3
#DECIMAL:                    ,POINT
#SEPARATOR:                  ,COMMA
#MTYPE:                      ,DSC
#INSTRUMENT:                 ,NETZSCH STA 449F5
#PROJECT:                    ,PS-SCF3
#DATE/TIME:                  ,3/27/2024 1:25:16 PM (UTC-4)
#CORR. FILE:                 ,
#TEMPCAL:                    ,28-06-2023 13:26
#SENSITIVITY:                ,28-06-2023 13:53
#LABORATORY:                 ,Tran/AAG
#OPERATOR:                   ,Stanley
#REMARK:                     ,
#SAMPLE:                     ,005a-F1v2-rGPC
#SAMPLE MASS /mg:            ,3.19
#MATERIAL:                   ,
#REFERENCE:                  ,-----
#REFERENCE MASS /mg:         ,0
#TYPE OF CRUCIBLE:           ,Al2O3 85 µl, open
#SAMPLE CRUCIBLE MASS /mg:   ,0
#REFERENCE CRUCIBLE MASS /mg:,0
#DSC RANGE /µV:              ,5000
#TG RANGE /mg:               ,35000
#TAU-R:                      ,---
#CORR. CODE:                 ,000
#EXO:                        ,-1
#RANGE:                      ,30°C....800°C/0.0....10.0K/min
#SEGMENT:                    ,S4/5
#SEG. 1:                     ,30°C/10.0(K/min)/100°C
#SEG. 2:                     ,100°C/00:10/100°C
#SEG. 3:                     ,100°C/10.0(K/min)/350°C
#SEG. 4:                     ,350°C/04:00/350°C
#SEG. 5:                     ,350°C/10.0(K/min)/800°C

##Temp./°C,Time/min,DSC/(mW/mg),Mass/%,Gas Flow(purge2)/(ml/min),Gas Flow(protective)/(ml/min),TIC(scan:1)/A,Sensit./(uV/mW)
348.452, 41.99333,      6.87825,    80.69687,50.00000,20.00000,6.052470e-08,0.74129
353.785, 43.99333,-5.587687e-02,    71.53323,50.00000,20.00000,6.076799e-08,0.73620
354.364, 45.99333,     -1.34563,    63.55016,50.00000,20.00000,6.085232e-08,0.73565
353.355, 47.99333,     -1.65070,    56.86865,50.00000,20.00000,6.080489e-08,0.73661
352.303, 49.99333,     -1.65331,    51.27241,50.00000,20.00000,6.142481e-08,0.73761
351.521, 51.99333,     -1.63577,    46.55925,50.00000,20.00000,6.105611e-08,0.73836
351.001, 53.99333,     -1.60327,    42.37461,50.00000,20.00000,6.149681e-08,0.73886
350.665, 55.99333,     -1.57410,    38.66144,50.00000,20.00000,6.104701e-08,0.73918
350.459, 57.99333,     -1.57239,    35.54075,50.00000,20.00000,6.130364e-08,0.73937
350.312, 59.99333,     -1.57630,    32.48370,50.00000,20.00000,6.084188e-08,0.73951
350.226, 61.99333,     -1.56998,    29.84169,50.00000,20.00000,6.086842e-08,0.73960
350.144, 63.99333,     -1.56626,    27.40188,50.00000,20.00000,6.113742e-08,0.73968
350.116, 65.99333,     -1.56523,    25.17461,50.00000,20.00000,6.087346e-08,0.73970
350.089, 67.99333,     -1.56711,    23.13542,50.00000,20.00000,6.101517e-08,0.73973
350.058, 69.99333,     -1.56382,    21.28056,50.00000,20.00000,6.098879e-08,0.73976
350.048, 71.99333,     -1.68795,    19.57492,50.00000,20.00000,6.099448e-08,0.73977
350.034, 73.99333,     -1.69115,    18.11379,50.00000,20.00000,6.125274e-08,0.73978
350.031, 75.99333,     -1.71474,    16.74138,50.00000,20.00000,6.096160e-08,0.73978
350.016, 77.99333,     -1.76352,    15.54263,50.00000,20.00000,6.093877e-08,0.73980
350.029, 79.99333,     -1.80106,    14.42915,50.00000,20.00000,6.096640e-08,0.73978
350.022, 81.99333,     -1.83531,    13.42194,50.00000,20.00000,6.113106e-08,0.73979
350.025, 83.99333,     -1.82788,    12.55298,50.00000,20.00000,6.088663e-08,0.73979
350.029, 85.99333,     -1.88479,    11.74451,50.00000,20.00000,6.077650e-08,0.73978
350.036, 87.99333,     -1.92360,    10.92163,50.00000,20.00000,6.069918e-08,0.73978
350.026, 89.99333,     -1.95881,    10.23009,50.00000,20.00000,6.060556e-08,0.73979
350.031, 91.99333,     -1.97338,     9.53511,50.00000,20.00000,6.097830e-08,0.73978
350.026, 93.99333,     -1.99502,     8.90031,50.00000,20.00000,6.090700e-08,0.73979
350.024, 95.99333,     -2.00827,     8.33292,50.00000,20.00000,6.083243e-08,0.73979
350.03, 97.99333,     -2.02736,     7.82571,50.00000,20.00000,6.074266e-08,0.73978
350.015, 99.99333,     -2.04187,     7.34326,50.00000,20.00000,6.072382e-08,0.73980
350.04,101.993,     -2.04582,     6.82194,50.00000,20.00000,6.092558e-08,0.73977
350.038,103.993,     -2.05842,     6.33981,50.00000,20.00000,6.065846e-08,0.73978
350.037,105.993,     -2.06294,     5.91411,50.00000,20.00000,6.086160e-08,0.73978
350.03,107.993,     -2.07586,     5.49216,50.00000,20.00000,6.064904e-08,0.73978
350.039,109.993,     -2.07911,     5.11975,50.00000,20.00000,6.084227e-08,0.73978
350.036,111.993,     -2.08816,     4.74734,50.00000,20.00000,6.056490e-08,0.73978
350.032,113.993,     -2.09623,     4.40690,50.00000,20.00000,6.056547e-08,0.73978
350.031,115.993,     -2.09849,     4.09843,50.00000,20.00000,6.070124e-08,0.73978
350.03,117.993,     -2.09719,     3.88558,50.00000,20.00000,6.049467e-08,0.73978
350.032,119.993,     -2.10496,     3.49561,50.00000,20.00000,6.071006e-08,0.73978
350.043,121.993,     -2.11178,     3.30408,50.00000,20.00000,6.067030e-08,0.73977
350.044,123.993,     -2.12051,     3.03793,50.00000,20.00000,6.057215e-08,0.73977
350.042,125.993,     -2.12632,     2.78621,50.00000,20.00000,6.085183e-08,0.73977
350.033,127.993,     -2.13050,     2.57335,50.00000,20.00000,6.042953e-08,0.73978
350.017,129.993,     -2.13272,     2.34639,50.00000,20.00000,6.076666e-08,0.73980
350.028,131.993,     -2.12887,     2.13730,50.00000,20.00000,6.048954e-08,0.73979
350.036,133.993,     -2.12307,     1.88527,50.00000,20.00000,6.045427e-08,0.73978
350.034,135.993,     -2.14085,     1.74357,50.00000,20.00000,6.080573e-08,0.73978
350.022,137.993,     -2.14017,     1.49875,50.00000,20.00000,6.067663e-08,0.73979
350.046,139.993,     -2.13668,     1.34639,50.00000,20.00000,6.060550e-08,0.73977
350.04,141.993,     -2.14410,     1.12288,50.00000,20.00000,6.083056e-08,0.73977
350.026,143.993,     -2.14923,     0.93511,50.00000,20.00000,6.065154e-08,0.73979
350.039,145.993,     -2.14216,     0.78966,50.00000,20.00000,6.078878e-08,0.73978
350.037,147.993,     -2.15056,     0.62633,50.00000,20.00000,6.056060e-08,0.73978
350.043,149.993,     -2.13893,     0.45987,50.00000,20.00000,6.101725e-08,0.73977
350.036,151.993,     -2.15540,     0.28589,50.00000,20.00000,6.049467e-08,0.73978
350.044,153.993,     -2.15058,     0.15831,50.00000,20.00000,6.046175e-08,0.73977
350.016,155.993,     -2.15987,2.194357e-03,50.00000,20.00000,6.046544e-08,0.73980
350.026,157.993,     -2.15731,    -0.12539,50.00000,20.00000,6.062948e-08,0.73979
350.039,159.993,     -2.16091,    -0.24608,50.00000,20.00000,6.073770e-08,0.73978
350.03,161.993,     -2.16379,    -0.37022,50.00000,20.00000,6.050008e-08,0.73978
350.025,163.993,     -2.16119,    -0.47304,50.00000,20.00000,6.047960e-08,0.73979
350.031,165.993,     -2.16153,    -0.59718,50.00000,20.00000,6.083540e-08,0.73978
350.021,167.993,     -2.16571,    -0.70000,50.00000,20.00000,6.061422e-08,0.73979
350.031,169.993,     -2.16638,    -0.78495,50.00000,20.00000,6.063935e-08,0.73978
350.016,171.993,     -2.17636,    -0.93041,50.00000,20.00000,6.048138e-08,0.73980
350.024,173.993,     -2.16992,    -0.96238,50.00000,20.00000,6.035570e-08,0.73979
350.032,175.993,     -2.16994,    -1.13981,50.00000,20.00000,6.048220e-08,0.73978
350.034,177.993,     -2.17156,    -1.13981,50.00000,20.00000,6.050252e-08,0.73978
350.04,179.993,     -2.17610,    -1.23887,50.00000,20.00000,6.071733e-08,0.73977
350.037,181.993,     -2.17383,    -1.33103,50.00000,20.00000,6.037816e-08,0.73978
350.034,183.993,     -2.17415,    -1.43041,50.00000,20.00000,6.041522e-08,0.73978
350.026,185.993,     -2.17574,    -1.56520,50.00000,20.00000,6.059934e-08,0.73979
350.037,187.993,     -2.18030,    -1.64326,50.00000,20.00000,6.070777e-08,0.73978
350.036,189.993,     -2.18321,    -1.69655,50.00000,20.00000,6.048477e-08,0.73978
350.031,191.993,     -2.17414,    -1.79561,50.00000,20.00000,6.057691e-08,0.73978
350.04,193.993,     -2.18225,    -1.90219,50.00000,20.00000,6.040621e-08,0.73977
350.029,195.993,     -2.18642,    -1.89498,50.00000,20.00000,6.047147e-08,0.73978
350.025,197.993,     -2.18608,    -1.97304,50.00000,20.00000,6.034298e-08,0.73979
350.014,199.993,     -2.18735,    -2.02978,50.00000,20.00000,6.078435e-08,0.73980
350.023,201.993,     -2.18543,    -2.13260,50.00000,20.00000,6.024445e-08,0.73979
350.04,203.993,     -2.18386,    -2.18934,50.00000,20.00000,6.042330e-08,0.73977
350.034,205.993,     -2.19387,    -2.19655,50.00000,20.00000,6.027219e-08,0.73978
350.045,207.993,     -2.19422,    -2.28527,50.00000,20.00000,6.057389e-08,0.73977
350.05,209.993,     -2.18777,    -2.28527,50.00000,20.00000,6.043205e-08,0.73976
350.042,211.993,     -2.19422,    -2.35611,50.00000,20.00000,6.056201e-08,0.73977
350.039,213.993,     -2.19356,    -2.36332,50.00000,20.00000,6.042978e-08,0.73978
350.024,215.993,     -2.19578,    -2.36677,50.00000,20.00000,6.050946e-08,0.73979
350.039,217.993,     -2.19712,    -2.46238,50.00000,20.00000,6.044869e-08,0.73978
350.039,219.993,     -2.19162,    -2.52978,50.00000,20.00000,6.049112e-08,0.73978
350.024,221.993,     -2.20613,    -2.52978,50.00000,20.00000,6.040617e-08,0.73979
350.021,223.993,     -2.20094,    -2.55455,50.00000,20.00000,6.088372e-08,0.73979
350.022,225.993,     -2.20256,    -2.63981,50.00000,20.00000,6.057981e-08,0.73979
350.022,227.993,     -2.20903,    -2.63981,50.00000,20.00000,6.053112e-08,0.73979
350.033,229.993,     -2.20260,    -2.65737,50.00000,20.00000,6.063386e-08,0.73978
350.037,231.993,     -2.19970,    -2.70376,50.00000,20.00000,6.040772e-08,0.73978
350.038,233.993,     -2.20714,    -2.76050,50.00000,20.00000,6.045410e-08,0.73978
350.044,235.993,     -2.20618,    -2.82790,50.00000,20.00000,6.054783e-08,0.73977
350.038,237.993,     -2.20261,    -2.85956,50.00000,20.00000,6.060644e-08,0.73978
350.028,239.993,     -2.21196,    -2.89875,50.00000,20.00000,6.060165e-08,0.73979
350.038,241.993,     -2.21554,    -2.94828,50.00000,20.00000,6.050063e-08,0.73978
350.035,243.993,     -2.20260,    -2.94138,50.00000,20.00000,6.064750e-08,0.73978
350.026,245.993,     -2.21001,    -3.01223,50.00000,20.00000,6.032852e-08,0.73979
350.025,247.993,     -2.21809,    -3.01567,50.00000,20.00000,6.044445e-08,0.73979
350.024,249.993,     -2.21291,    -3.05831,50.00000,20.00000,6.047264e-08,0.73979
350.033,251.993,     -2.21035,    -3.09028,50.00000,20.00000,6.057563e-08,0.73978
350.036,253.993,     -2.21360,    -3.09373,50.00000,20.00000,6.043659e-08,0.73978
350.03,255.993,     -2.21616,    -3.08652,50.00000,20.00000,6.027655e-08,0.73978
350.038,257.993,     -2.21845,    -3.09028,50.00000,20.00000,6.027923e-08,0.73978
350.033,259.993,     -2.20583,    -3.11505,50.00000,20.00000,6.062418e-08,0.73978
350.034,261.993,     -2.21165,    -3.10094,50.00000,20.00000,6.028429e-08,0.73978
350.038,263.993,     -2.21199,    -3.12915,50.00000,20.00000,6.044412e-08,0.73978
350.031,265.993,     -2.21132,    -3.13260,50.00000,20.00000,6.061930e-08,0.73978
350.042,267.993,     -2.21458,    -3.15392,50.00000,20.00000,6.050082e-08,0.73977
350.03,269.993,     -2.21261,    -3.15392,50.00000,20.00000,6.029452e-08,0.73978
350.032,271.993,     -2.20647,    -3.13636,50.00000,20.00000,6.046606e-08,0.73978
350.04,273.993,     -2.20908,    -3.17868,50.00000,20.00000,6.038186e-08,0.73977
350.029,275.993,     -2.21584,    -3.24263,50.00000,20.00000,6.032581e-08,0.73978
350.04,277.993,     -2.21458,    -3.19310,50.00000,20.00000,6.046165e-08,0.73977
350.027,279.993,     -2.21907,    -3.26395,50.00000,20.00000,6.036032e-08,0.73979
350.019,281.993,     -2.21581,    -3.26395,50.00000,20.00000,6.042106e-08,0.73979