File: templates/ExpDat_2023_12_05_SL_007A_PS_280C_isotherm_1pt_min.csv
#EXPORTTYPE:                 ,DATA ALL
#FILE:                       ,2023_12_05_SL_007A_PS_280C_isotherm_1pt_min.ngb-ss5
#FORMAT:                     ,NETZSCH5
#FTYPE:                      ,ASCII
#IDENTITY:                   ,PS 001G (Mn~8K)
#DECIMAL:                    ,POINT
#SEPARATOR:                  ,COMMA
#MTYPE:                      ,DSC
#INSTRUMENT:                 ,NETZSCH STA 449F5
#PROJECT:                    ,2023_12_06_SL_007A
#DATE/TIME:                  ,12/6/2023 4:51:16 PM (UTC-5)
#CORR. FILE:                 ,
#TEMPCAL:                    ,28-06-2023 13:26
#SENSITIVITY:                ,28-06-2023 13:53
#LABORATORY:                 ,Tran/AAG
#OPERATOR:                   ,Stanley
#REMARK:                     ,
#SAMPLE:                     ,007A_001G
#SAMPLE MASS /mg:            ,28.63
#MATERIAL:                   ,Polystyrene
#REFERENCE:                  ,
#REFERENCE MASS /mg:         ,0
#TYPE OF CRUCIBLE:           ,Al2O3 85 ‘l, open
#SAMPLE CRUCIBLE MASS /mg:   ,0
#REFERENCE CRUCIBLE MASS /mg:,0
#DSC RANGE /‘V:              ,5000
#TG RANGE /mg:               ,35000
#TAU-R:                      ,---
#CORR. CODE:                 ,000
#EXO:                        ,-1
#RANGE:                      ,20›C....800›C/0.0....10.0K/min
#SEGMENT:                    ,S1-4/4
#SEG. 1:                     ,20›C/00:20/20›C
#SEG. 2:                     ,20›C/1.0(K/min)/280›C
#SEG. 3:                     ,280›C/24:00/280›C
#SEG. 4:                     ,280›C/10.0(K/min)/800›C

##Temp./›C,Time/min,DSC/(mW/mg),Mass/%,Gas Flow(purge2)/(ml/min),Gas Flow(protective)/(ml/min),IonCurrent(m:18)/A,IonCurrent(m:28)/A,IonCurrent(m:40)/A,IonCurrent(m:104)/A,IonCurrent(m:105)/A,Sensit./(uV/mW),Segment
 28.47100,   0.00000, 1.567268e-02,100,50.00000,20.00000,6.342102e-10,2.670383e-07,2.611256e-07,7.164955e-12,3.722191e-12,0.92326,1
 31.01897,  30.00000,-8.366014e-03, 97.62347,50.00000,20.00000,6.471071e-10,4.871215e-08,4.104542e-07,7.760851e-12,4.355176e-12,0.92374,2
 60.40312,  60.00000, 2.270202e-02, 98.16733,50.00000,20.00000,5.286576e-10,9.353326e-09,4.434685e-07,8.010882e-12,4.716801e-12,0.92619,2
 89.86419,  90.00000, 2.678593e-02, 98.35975,50.00000,20.00000,4.977594e-10,5.112002e-09,4.521847e-07,8.389612e-12,4.875413e-12,0.92324,2
119.943, 120, 3.279305e-02, 98.31783,50.00000,20.00000,4.860397e-10,4.580369e-09,4.550542e-07,8.465931e-12,5.340023e-12,0.91500,2
149.947, 150, 2.859885e-02, 98.48303,50.00000,20.00000,4.833089e-10,4.473191e-09,4.546944e-07,8.697165e-12,5.374999e-12,0.90203,2
179.972, 180, 1.020983e-02, 98.56245,50.00000,20.00000,4.759476e-10,4.408040e-09,4.551753e-07,9.101748e-12,6.134266e-12,0.88485,2
209.98, 210,-3.823209e-03, 98.62370,50.00000,20.00000,4.767580e-10,4.371396e-09,4.550553e-07,1.011717e-11,6.591798e-12,0.86412,2
239.963, 240,-2.279526e-02, 98.59919,50.00000,20.00000,4.765567e-10,4.375276e-09,4.531342e-07,2.575310e-11,8.994960e-12,0.84050,2
269.944, 270,-5.014350e-02, 97.85713,50.00000,20.00000,4.740229e-10,4.319458e-09,4.506999e-07,1.271066e-10,2.117075e-11,0.81466,2
280.045, 300,-8.812550e-02, 95.92372,50.00000,20.00000,4.693539e-10,4.258607e-09,4.469232e-07,1.896670e-10,2.849275e-11,0.80558,3
280.026, 330,-7.790105e-02, 94.38029,50.00000,20.00000,4.624307e-10,4.143551e-09,4.444099e-07,1.481747e-10,2.293937e-11,0.80559,3
280.006, 360,-7.072185e-02, 93.14663,50.00000,20.00000,4.574385e-10,4.072363e-09,4.405522e-07,1.189024e-10,1.931866e-11,0.80561,3
280.023, 390,-5.530762e-02, 92.10581,50.00000,20.00000,4.528840e-10,3.982061e-09,4.372493e-07,9.931081e-11,1.683921e-11,0.80560,3
280.009, 420,-4.372971e-02, 91.22502,50.00000,20.00000,4.487351e-10,3.907096e-09,4.331681e-07,8.533671e-11,1.532689e-11,0.80561,3
280.017, 450,-3.843808e-02, 90.46278,50.00000,20.00000,4.455290e-10,3.845734e-09,4.292037e-07,7.436707e-11,1.428912e-11,0.80560,3
280.016, 480,-3.572425e-02, 89.78509,50.00000,20.00000,4.410222e-10,3.794662e-09,4.278859e-07,6.527989e-11,1.330605e-11,0.80560,3
280.022, 510,-3.407201e-02, 89.19000,50.00000,20.00000,4.375743e-10,3.747389e-09,4.234966e-07,5.829376e-11,1.262361e-11,0.80560,3
280.028, 540,-3.274836e-02, 88.66095,50.00000,20.00000,4.379125e-10,3.696263e-09,4.213272e-07,5.373078e-11,1.189393e-11,0.80559,3
280.027, 570,-3.139053e-02, 88.18598,50.00000,20.00000,4.344742e-10,3.663593e-09,4.180846e-07,4.912201e-11,1.106065e-11,0.80559,3
280.01, 600,-3.264840e-02, 87.74341,50.00000,20.00000,4.320937e-10,3.625157e-09,4.171052e-07,4.627083e-11,1.090327e-11,0.80561,3
280.025, 630,-3.251703e-02, 87.33680,50.00000,20.00000,4.299994e-10,3.598280e-09,4.135869e-07,4.348405e-11,1.068166e-11,0.80560,3
280.012, 660,-3.185436e-02, 86.94598,50.00000,20.00000,4.280654e-10,3.553394e-09,4.120066e-07,4.006373e-11,1.023562e-11,0.80561,3
280.014, 690,-3.145787e-02, 86.59157,50.00000,20.00000,4.258226e-10,3.539983e-09,4.099726e-07,3.824997e-11,1.012591e-11,0.80560,3
280.015, 720,-3.079607e-02, 86.24420,50.00000,20.00000,4.228889e-10,3.502889e-09,4.086314e-07,3.691529e-11,9.697741e-12,0.80560,3
280.019, 750,-3.049901e-02, 85.91863,50.00000,20.00000,4.237105e-10,3.469134e-09,4.066175e-07,3.535443e-11,9.576289e-12,0.80560,3
280.013, 780,-3.033289e-02, 85.60764,50.00000,20.00000,4.206712e-10,3.455205e-09,4.049545e-07,3.366956e-11,9.512641e-12,0.80561,3
280.023, 810,-3.016963e-02, 85.30812,50.00000,20.00000,4.173738e-10,3.414769e-09,4.024863e-07,3.303760e-11,9.017339e-12,0.80560,3
280.024, 840,-2.940750e-02, 85.02044,50.00000,20.00000,4.137128e-10,3.395897e-09,4.009618e-07,3.174541e-11,9.128860e-12,0.80560,3
280.007, 870,-2.897668e-02, 84.74184,50.00000,20.00000,4.140454e-10,3.367670e-09,3.988027e-07,2.969729e-11,8.772786e-12,0.80561,3
280.007, 900,-2.844749e-02, 84.48346,50.00000,20.00000,4.114645e-10,3.348800e-09,3.969334e-07,2.962140e-11,8.444299e-12,0.80561,3
280.005, 930,-2.867949e-02, 84.23053,50.00000,20.00000,4.089835e-10,3.329771e-09,3.956129e-07,2.850550e-11,8.311246e-12,0.80561,3
280.024, 960,-2.791794e-02, 83.98553,50.00000,20.00000,4.091327e-10,3.308949e-09,3.936810e-07,2.773193e-11,8.102225e-12,0.80560,3
280.014, 990,-2.771984e-02, 83.74806,50.00000,20.00000,4.039261e-10,3.271955e-09,3.931941e-07,2.687149e-11,7.857545e-12,0.80560,3
280.003,1020,-2.762103e-02, 83.51496,50.00000,20.00000,4.004540e-10,3.245873e-09,3.917433e-07,2.630512e-11,7.667982e-12,0.80561,3
280.02,1050,-2.696001e-02, 83.28891,50.00000,20.00000,4.013304e-10,3.224499e-09,3.896506e-07,2.608187e-11,7.806480e-12,0.80560,3
280.011,1080,-2.649608e-02, 83.04672,50.00000,20.00000,3.981539e-10,3.196163e-09,3.890575e-07,2.529149e-11,7.473194e-12,0.80561,3
280.031,1110,-2.609924e-02, 82.81435,50.00000,20.00000,3.952919e-10,3.193809e-09,3.868265e-07,2.485090e-11,7.522868e-12,0.80559,3
280.002,1140,-2.573494e-02, 82.60771,50.00000,20.00000,3.951470e-10,3.160741e-09,3.855469e-07,2.402513e-11,7.220092e-12,0.80562,3
280.023,1170,-2.533840e-02, 82.39549,50.00000,20.00000,3.929256e-10,3.151798e-09,3.845212e-07,2.340644e-11,7.096540e-12,0.80560,3
280.011,1200,-2.533868e-02, 82.19238,50.00000,20.00000,3.891220e-10,3.128130e-09,3.830520e-07,2.309859e-11,7.020279e-12,0.80561,3
280.023,1230,-2.494102e-02, 81.99799,50.00000,20.00000,3.905013e-10,3.113802e-09,3.800820e-07,2.239102e-11,6.887726e-12,0.80560,3
280.014,1260,-2.470948e-02, 81.80436,50.00000,20.00000,3.851060e-10,3.079694e-09,3.797192e-07,2.196829e-11,7.032947e-12,0.80560,3
280.001,1290,-2.437932e-02, 81.60717,50.00000,20.00000,3.851786e-10,3.045750e-09,3.780174e-07,2.174094e-11,6.635254e-12,0.80562,3
280.021,1320,-2.411478e-02, 81.41907,50.00000,20.00000,3.841879e-10,3.057951e-09,3.770851e-07,2.150294e-11,6.547029e-12,0.80560,3
280.012,1350,-2.394975e-02, 81.23573,50.00000,20.00000,3.830546e-10,3.020470e-09,3.768826e-07,2.070517e-11,6.425207e-12,0.80561,3
280.008,1380,-2.298945e-02, 81.05871,50.00000,20.00000,3.813672e-10,3.008788e-09,3.747086e-07,2.100514e-11,6.211907e-12,0.80561,3
280.01,1410,-2.315481e-02, 80.87222,50.00000,20.00000,3.788399e-10,2.991026e-09,3.740521e-07,2.031764e-11,6.435844e-12,0.80561,3
280.016,1440,-2.332044e-02, 80.69994,50.00000,20.00000,3.750386e-10,2.973232e-09,3.728918e-07,1.965282e-11,6.239589e-12,0.80560,3
280.014,1470,-2.255979e-02, 80.53118,50.00000,20.00000,3.765402e-10,2.958794e-09,3.721381e-07,1.989954e-11,6.276266e-12,0.80560,3
280.01,1500,-2.262420e-02, 80.35731,50.00000,20.00000,3.779094e-10,2.946510e-09,3.713379e-07,1.971037e-11,5.921795e-12,0.80561,3
280.016,1530,-2.249299e-02, 80.18187,50.00000,20.00000,3.723173e-10,2.925386e-09,3.697595e-07,1.908813e-11,5.947941e-12,0.80560,3
280.014,1560,-2.239518e-02, 80.01156,50.00000,20.00000,3.698798e-10,2.907004e-09,3.690812e-07,1.892110e-11,6.027758e-12,0.80560,3
280.025,1590,-2.206352e-02, 79.85631,50.00000,20.00000,3.698462e-10,2.894019e-09,3.680221e-07,1.847968e-11,5.731562e-12,0.80559,3
280.019,1620,-2.199683e-02, 79.69705,50.00000,20.00000,3.646668e-10,2.880465e-09,3.676571e-07,1.852406e-11,5.661533e-12,0.80560,3
280.006,1650,-2.183100e-02, 79.53304,50.00000,20.00000,3.649529e-10,2.870175e-09,3.658329e-07,1.838276e-11,5.658840e-12,0.80561,3
280.031,1680,-2.196487e-02, 79.36906,50.00000,20.00000,3.633317e-10,2.846431e-09,3.652232e-07,1.831835e-11,5.537552e-12,0.80559,3
280.03,1710,-2.130229e-02, 79.21376,50.00000,20.00000,3.636593e-10,2.835991e-09,3.633402e-07,1.744293e-11,5.570679e-12,0.80559,3
479.282,1740, 5.263259e-02,  0.13521,50.00000,20.00000,3.981804e-10,3.386528e-09,3.704295e-07,2.537577e-08,2.807777e-09,0.62298,4
778.849,1770,     -1.01839,  0.49175,50.00000,20.00000,7.119943e-10,4.825820e-09,3.278817e-07,8.463133e-11,2.974226e-11,0.45339,4