File: data/TGA/2024_01_24_001G_and_005P.csv
Baseline 100%T,,Baseline 0%T,,thf_blank,,001G_1mg_ml,,005P_1mg_ml,,005P_0.6mg_ml,,
Wavelength (nm),%T,Wavelength (nm),%T,Wavelength (nm),Abs,Wavelength (nm),Abs,Wavelength (nm),Abs,Wavelength (nm),Abs,
800,92.9379,800,0.00133842,800,0.000242697,800,0.000286834,800,0.00290194,800,0.00357344,
794,92.9554,794,0.00111508,794,0.000511756,794,0.000448032,794,0.00295615,794,0.00372155,
788,93.0195,788,0.000936156,788,0.000395899,788,0.000517614,788,0.00288242,788,0.00374688,
782,93.1136,782,0.000532338,782,0.000389681,782,0.000443964,782,0.00286098,782,0.0037162,
776,93.2322,776,0.000770812,776,0.000310173,776,0.000386572,776,0.00276007,776,0.00366553,
770,93.4152,770,0.000723416,770,0.000361389,770,0.00044031,770,0.00283065,770,0.00373829,
764,93.6174,764,0.000662919,764,0.000446996,764,0.000393023,764,0.00288722,764,0.00375902,
758,93.8479,758,0.000463677,758,0.000358228,758,0.000415643,758,0.00279756,758,0.00372205,
752,94.1082,752,0.000485183,752,0.000366001,752,0.000404994,752,0.0028288,752,0.00372743,
746,94.3805,746,0.000247622,746,0.000387375,746,0.000400874,746,0.00282611,746,0.00371753,
740,94.6512,740,0.000255928,740,0.000401418,740,0.000430075,740,0.00299485,740,0.00371808,
734,94.8924,734,0.000260429,734,0.000402947,734,0.000361519,734,0.00323858,734,0.00374633,
728,95.172,728,0.000140281,728,0.000433573,728,0.000461274,728,0.0034601,728,0.00390247,
722,95.432,722,0.000188257,722,0.000290667,722,0.000346907,722,0.00343769,722,0.00378566,
716,95.7084,716,0.000186438,716,0.000328332,716,0.000322737,716,0.00337439,716,0.00381814,
710,95.9895,710,2.19834e-05,710,0.000341441,710,0.000313981,710,0.00342344,710,0.00381908,
704,96.2658,704,-4.22643e-05,704,0.000416265,704,0.000405641,704,0.00338246,704,0.0039223,
698,96.5403,698,-0.000160977,698,0.000355871,698,0.000421861,698,0.0033379,698,0.00396752,
692,96.8053,692,-0.00029301,692,0.000381312,692,0.000425463,692,0.00321583,692,0.0039718,
686,97.0715,686,-0.000146323,686,0.000381856,686,0.000444871,686,0.00321278,686,0.00402144,
680,97.3524,680,-0.000276456,680,0.000371882,680,0.000421602,680,0.00319583,680,0.00414373,
674,97.63,674,-0.000187775,674,0.000408932,674,0.000409191,674,0.00336722,674,0.00431395,
668,97.9175,668,-2.64116e-05,668,0.000389577,668,0.000399371,668,0.00363582,668,0.00445907,
662,98.2146,662,-0.000201383,662,0.000364057,662,0.000441528,662,0.00364767,662,0.00448763,
656,98.4849,656,-0.000290878,656,0.000440829,656,0.000456921,656,0.00347719,656,0.00436318,
650,98.743,650,-0.000323439,650,0.000420229,650,0.000452489,650,0.00342002,650,0.00428414,
644,98.9346,644,-0.000116081,644,0.000425152,644,0.000500353,644,0.00343584,644,0.00433923,
638,99.0843,638,-0.000346886,638,0.000403828,638,0.000514529,638,0.00350759,638,0.00435738,
632,99.1734,632,-0.000322664,632,0.000431008,632,0.000516059,632,0.00351952,632,0.00436545,
626,99.2061,626,-1.69577e-06,626,0.000351777,626,0.000509787,626,0.00356248,626,0.00428799,
620,99.2651,620,-0.00024046,620,0.000389474,620,0.000532024,620,0.00369148,620,0.00429941,
614,99.3323,614,-7.62178e-05,614,0.000439689,614,0.000545086,614,0.00373531,614,0.00429536,
608,99.4912,608,-5.08665e-05,608,0.000480554,608,0.000603329,608,0.00384606,608,0.00431277,
602,99.6743,602,-0.000315841,602,0.00042922,602,0.000593453,602,0.00392465,602,0.00433552,
596,99.8044,596,-0.000288755,596,0.000460108,596,0.00061896,596,0.00407848,596,0.00431978,
590,99.7845,590,-0.000217912,590,0.000435776,590,0.000620542,590,0.00420136,590,0.00440329,
584,99.7348,584,-0.000246499,584,0.000379732,584,0.00059099,584,0.00419417,584,0.00436276,
578,99.707,578,-0.000236096,578,0.00030336,578,0.000470862,578,0.00417799,578,0.00430114,
572,99.6999,572,-0.000285894,572,0.000199886,572,0.000414943,572,0.00420557,572,0.00430184,
566,99.7909,566,-0.000200796,566,0.000200119,566,0.000482524,566,0.00439317,566,0.00431212,
560,99.8712,560,-4.56001e-05,560,0.000160238,560,0.000366415,560,0.00449904,560,0.00437625,
554,99.9754,554,-0.000150789,554,0.000152236,554,0.000426318,554,0.00468787,554,0.00455057,
548,100.068,548,-0.000370004,548,0.00014338,548,0.000364653,548,0.00489605,548,0.00459595,
542,100.166,542,-0.000106251,542,0.000157053,542,0.000404268,542,0.00508883,542,0.00475677,
536,100.277,536,-0.000211797,536,0.000102857,536,0.000409813,536,0.00543474,536,0.00494373,
530,100.389,530,-0.000143451,530,0.00012497,530,0.000418752,530,0.00571994,530,0.00513196,
524,100.511,524,-0.000164731,524,0.000178779,524,0.00048965,524,0.00606924,524,0.00546805,
518,100.618,518,-5.27874e-05,518,0.000102054,518,0.000390251,518,0.00640522,518,0.00566859,
512,100.716,512,-0.00020923,512,0.000127404,512,0.000403802,512,0.00692269,512,0.0060416,
506,100.811,506,-0.000220797,506,0.00010498,506,0.000433599,506,0.00749929,506,0.00637511,
500,100.908,500,-0.000216175,500,0.000143846,500,0.000454355,500,0.00819886,500,0.00682657,
494,100.999,494,-0.000112358,494,0.000120619,494,0.000427251,494,0.00885554,494,0.00726177,
488,101.115,488,-0.000100623,488,6.92764e-05,488,0.000499757,488,0.00976148,488,0.00789342,
482,101.22,482,-0.000177916,482,0.000123338,482,0.000476796,482,0.0107944,482,0.00858433,
476,101.337,476,-8.34829e-05,476,0.000150216,476,0.000495792,476,0.0120873,476,0.00946814,
470,101.451,470,-2.81642e-05,470,6.80854e-05,470,0.000521242,470,0.0137808,470,0.0104957,
464,101.577,464,-0.000213228,464,0.000124685,464,0.000566729,464,0.0159778,464,0.0120339,
458,101.705,458,-0.000123658,458,0.000151874,458,0.00065655,458,0.018796,458,0.0139583,
452,101.831,452,-0.000103461,452,0.000126109,452,0.000862626,452,0.0222394,452,0.0162701,
446,101.95,446,-8.34125e-05,446,9.27852e-05,446,0.00100933,446,0.0261011,446,0.0189449,
440,102.058,440,-0.000308363,440,0.000154748,440,0.00105515,440,0.0303351,440,0.021816,
434,102.104,434,-0.00062021,434,0.000154023,434,0.0011042,434,0.0352664,434,0.0251786,
428,102.14,428,-5.88985e-05,428,7.71988e-05,428,0.00113723,428,0.0412705,428,0.029288,
422,102.163,422,-0.000221296,422,3.54652e-05,422,0.00120721,422,0.0483542,422,0.0341231,
416,102.144,416,-0.000154559,416,8.68302e-05,416,0.00131464,416,0.0554296,416,0.0388057,
410,102.095,410,-0.000392964,410,8.88497e-05,410,0.0013417,410,0.0615718,410,0.0429789,
404,102.061,404,-0.000280484,404,0.000109382,404,0.0015063,404,0.067606,404,0.0471235,
398,102.038,398,-9.49918e-05,398,0.000183803,398,0.00168152,398,0.074284,398,0.0516734,
392,101.998,392,-0.000265276,392,5.97489e-05,392,0.00184718,392,0.0809808,392,0.0562231,
386,101.956,386,-6.60038e-05,386,0.000136259,386,0.00208504,386,0.0878247,386,0.0609528,
380,101.805,380,-0.000336226,380,8.56392e-05,380,0.00230751,380,0.0952231,380,0.0660652,
374,101.648,374,-0.000258507,374,1.26325e-05,374,0.00255369,374,0.103009,374,0.0716145,
368,101.457,368,-0.000253321,368,5.9257e-05,368,0.00282804,368,0.110632,368,0.0769482,
362,101.252,362,-0.000134148,362,9.118e-05,362,0.00302316,362,0.118278,362,0.0822608,
356,100.98,356,-0.000385063,356,-3.85684e-05,356,0.00317784,356,0.126022,356,0.087774,
350,100.646,350,-0.000186731,350,5.55548e-05,350,0.00351349,350,0.135956,350,0.0947774,
344,100.683,344,-0.000229099,344,-0.000192911,344,0.00344129,344,0.135706,344,0.0947417,
338,100.558,338,-0.00067659,338,-0.000135414,338,0.0034392,338,0.145353,338,0.101802,
332,100.528,332,-0.000263294,332,1.48329e-05,332,0.00361883,332,0.160595,332,0.113086,
326,100.586,326,-0.000126457,326,-8.07635e-06,326,0.00416989,326,0.178654,326,0.126463,
320,100.598,320,-0.000401645,320,-4.41075e-05,320,0.00388314,320,0.189843,320,0.134841,
314,100.599,314,-0.000460801,314,1.42116e-05,314,0.00408216,314,0.208499,314,0.149113,
308,100.574,308,-0.000365804,308,0.00025601,308,0.00438263,308,0.234013,308,0.169051,
302,100.556,302,-0.000231526,302,1.6412e-05,302,0.00585501,302,0.262028,302,0.192316,
296,104.181,296,-0.000263075,296,0.00022884,296,0.0127048,296,0.269038,296,0.201848,
290,145.093,290,-0.000695257,290,0.00149292,290,0.00994096,290,0.109504,290,0.0900486,
284,166.776,284,-4.92916e-05,284,0.00218639,284,0.00115719,284,0.00721566,284,0.00836105,
278,166.893,278,8.41824e-06,278,0.00198956,278,0.00140719,278,0.00672397,278,0.00801538,
272,163.289,272,-0.000148329,272,0.00216323,272,0.00810549,272,0.0128669,272,0.0144157,
266,149.545,266,8.55873e-05,266,0.00150817,266,0.0432152,266,0.0464498,266,0.0482228,
260,129.896,260,-0.000196812,260,0.00127855,260,0.123043,260,0.126426,260,0.12789,
254,117.957,254,-0.000192501,254,0.000693054,254,0.209881,254,0.21356,254,0.215146,
248,116.135,248,-0.000431343,248,0.000655306,248,0.23704,248,0.245752,248,0.247262,
242,135.321,242,-0.000531601,242,0.00127042,242,0.140271,242,0.153719,242,0.1554,
236,162.628,236,-0.000374508,236,0.00231631,236,0.0025453,236,0.00337878,236,0.00506182,
230,159.872,230,-8.19121e-05,230,0.00197235,230,0.000624871,230,0.000529121,230,0.00237432,
224,156.396,224,-0.000465548,224,0.00214,224,0.000637703,224,0.00103818,224,0.0029537,
218,150.834,218,-0.000202462,218,0.00185033,218,0.000680998,218,0.00147534,218,0.00331359,
212,147.1,212,-0.000204031,212,0.00218862,212,0.000884544,212,0.0034482,212,0.00527506,
206,142.766,206,-0.000269657,206,0.001847,206,0.00101768,206,0.00544533,206,0.00701544,
200,133.71,200,-0.000813844,200,0.00273522,200,0.00309287,200,0.0118213,200,0.0134476,
199,130.096,,,,,,,,,,,

Baseline 100%T,
Baseline 100%T
Collection Time: 2024-01-24 1:21:39 PM
Operator Name  :
Scan Version 6.4.0.1610
Parameter List :
Instrument  Cary 7000
Instrument Version  3.07
Method Log     :
Method Name    :
Date/Time stamp: 2024-01-24 1:19:40 PM
Method Modifications:
ConcentrationReportSelected Changed: 2024-01-24 1:19:41 PM, Old:Choice 0, New:Choice 1
ConcentrationReportSelected Changed: 2024-01-24 1:19:41 PM, Old:ON, New:Choice 0
MCAReportSelected Changed: 2024-01-24 1:19:41 PM, Old:Choice 0, New:Choice 1
MCAReportSelected Changed: 2024-01-24 1:19:41 PM, Old:ON, New:Choice 0
UVVIS Scan Rate nm Changed: 2024-01-24 1:20:57 PM, Old:  602.007, New:  600.000
NIR Scan Rate nm Changed: 2024-01-24 1:20:57 PM, Old:    0.004, New:   12.000
Baseline Correction Changed: 2024-01-24 1:20:57 PM, Old:0, New:2
Sipper Type Changed: 2024-01-24 1:20:57 PM, Old:Internal RSA, New:External sipper
End Method Modifications
<Current Wavelength> , 199.000
<SBW (nm)> , 2.00
<Energy> , 95.50
<Slit Height> , Full

Baseline 0%T,
Baseline 0%T
Collection Time: 2024-01-24 1:23:25 PM
Operator Name  :
Scan Version 6.4.0.1610
Parameter List :
Instrument  Cary 7000
Instrument Version  3.07
Method Log     :
Method Name    :
Date/Time stamp: 2024-01-24 1:19:40 PM
Method Modifications:
ConcentrationReportSelected Changed: 2024-01-24 1:19:41 PM, Old:Choice 0, New:Choice 1
ConcentrationReportSelected Changed: 2024-01-24 1:19:41 PM, Old:ON, New:Choice 0
MCAReportSelected Changed: 2024-01-24 1:19:41 PM, Old:Choice 0, New:Choice 1
MCAReportSelected Changed: 2024-01-24 1:19:41 PM, Old:ON, New:Choice 0
UVVIS Scan Rate nm Changed: 2024-01-24 1:20:57 PM, Old:  602.007, New:  600.000
NIR Scan Rate nm Changed: 2024-01-24 1:20:57 PM, Old:    0.004, New:   12.000
Baseline Correction Changed: 2024-01-24 1:20:57 PM, Old:0, New:2
Sipper Type Changed: 2024-01-24 1:20:57 PM, Old:Internal RSA, New:External sipper
End Method Modifications
<Current Wavelength> , 200.000
<SBW (nm)> , 2.00
<Energy> , 104.71
<Slit Height> , Full

thf_blank,
thf_blank
Collection Time: 2024-01-24 1:25:30 PM
Operator Name  :
Scan Version 6.4.0.1610
Parameter List :
Instrument  Cary 7000
Instrument Version  3.07
Method Log     :
Method Name    :
Date/Time stamp: 2024-01-24 1:19:40 PM
Method Modifications:
ConcentrationReportSelected Changed: 2024-01-24 1:19:41 PM, Old:Choice 0, New:Choice 1
ConcentrationReportSelected Changed: 2024-01-24 1:19:41 PM, Old:ON, New:Choice 0
MCAReportSelected Changed: 2024-01-24 1:19:41 PM, Old:Choice 0, New:Choice 1
MCAReportSelected Changed: 2024-01-24 1:19:41 PM, Old:ON, New:Choice 0
UVVIS Scan Rate nm Changed: 2024-01-24 1:20:57 PM, Old:  602.007, New:  600.000
NIR Scan Rate nm Changed: 2024-01-24 1:20:57 PM, Old:    0.004, New:   12.000
Baseline Correction Changed: 2024-01-24 1:20:57 PM, Old:0, New:2
Sipper Type Changed: 2024-01-24 1:20:57 PM, Old:Internal RSA, New:External sipper
End Method Modifications
<Current Wavelength> , 200.000
<SBW (nm)> , 2.00
<Energy> , 87.10
<Slit Height> , Full

001G_1mg_ml,
001G_1mg_ml
Collection Time: 2024-01-24 1:27:52 PM
Operator Name  :
Scan Version 6.4.0.1610
Parameter List :
Instrument  Cary 7000
Instrument Version  3.07
Method Log     :
Method Name    :
Date/Time stamp: 2024-01-24 1:19:40 PM
Method Modifications:
ConcentrationReportSelected Changed: 2024-01-24 1:19:41 PM, Old:Choice 0, New:Choice 1
ConcentrationReportSelected Changed: 2024-01-24 1:19:41 PM, Old:ON, New:Choice 0
MCAReportSelected Changed: 2024-01-24 1:19:41 PM, Old:Choice 0, New:Choice 1
MCAReportSelected Changed: 2024-01-24 1:19:41 PM, Old:ON, New:Choice 0
UVVIS Scan Rate nm Changed: 2024-01-24 1:20:57 PM, Old:  602.007, New:  600.000
NIR Scan Rate nm Changed: 2024-01-24 1:20:57 PM, Old:    0.004, New:   12.000
Baseline Correction Changed: 2024-01-24 1:20:57 PM, Old:0, New:2
Sipper Type Changed: 2024-01-24 1:20:57 PM, Old:Internal RSA, New:External sipper
End Method Modifications
<Current Wavelength> , 199.000
<SBW (nm)> , 2.00
<Energy> , 87.10
<Slit Height> , Full

005P_1mg_ml,
005P_1mg_ml
Collection Time: 2024-01-24 1:31:22 PM
Operator Name  :
Scan Version 6.4.0.1610
Parameter List :
Instrument  Cary 7000
Instrument Version  3.07
Method Log     :
Method Name    :
Date/Time stamp: 2024-01-24 1:19:40 PM
Method Modifications:
ConcentrationReportSelected Changed: 2024-01-24 1:19:41 PM, Old:Choice 0, New:Choice 1
ConcentrationReportSelected Changed: 2024-01-24 1:19:41 PM, Old:ON, New:Choice 0
MCAReportSelected Changed: 2024-01-24 1:19:41 PM, Old:Choice 0, New:Choice 1
MCAReportSelected Changed: 2024-01-24 1:19:41 PM, Old:ON, New:Choice 0
UVVIS Scan Rate nm Changed: 2024-01-24 1:20:57 PM, Old:  602.007, New:  600.000
NIR Scan Rate nm Changed: 2024-01-24 1:20:57 PM, Old:    0.004, New:   12.000
Baseline Correction Changed: 2024-01-24 1:20:57 PM, Old:0, New:2
Sipper Type Changed: 2024-01-24 1:20:57 PM, Old:Internal RSA, New:External sipper
End Method Modifications
<Current Wavelength> , 199.000
<SBW (nm)> , 2.00
<Energy> , 87.10
<Slit Height> , Full

005P_0.6mg_ml,
005P_0.6mg_ml
Collection Time: 2024-01-24 1:33:11 PM
Operator Name  :
Scan Version 6.4.0.1610
Parameter List :
Instrument  Cary 7000
Instrument Version  3.07
Method Log     :
Method Name    :
Date/Time stamp: 2024-01-24 1:19:40 PM
Method Modifications:
ConcentrationReportSelected Changed: 2024-01-24 1:19:41 PM, Old:Choice 0, New:Choice 1
ConcentrationReportSelected Changed: 2024-01-24 1:19:41 PM, Old:ON, New:Choice 0
MCAReportSelected Changed: 2024-01-24 1:19:41 PM, Old:Choice 0, New:Choice 1
MCAReportSelected Changed: 2024-01-24 1:19:41 PM, Old:ON, New:Choice 0
UVVIS Scan Rate nm Changed: 2024-01-24 1:20:57 PM, Old:  602.007, New:  600.000
NIR Scan Rate nm Changed: 2024-01-24 1:20:57 PM, Old:    0.004, New:   12.000
Baseline Correction Changed: 2024-01-24 1:20:57 PM, Old:0, New:2
Sipper Type Changed: 2024-01-24 1:20:57 PM, Old:Internal RSA, New:External sipper
End Method Modifications
<Current Wavelength> , 200.000
<SBW (nm)> , 2.00
<Energy> , 87.10
<Slit Height> , Full