File: data/TGA/ExpDat_2024_02_16_SL_001H_280C_isotherm_1pt_min_SC.csv
#EXPORTTYPE:                 ,DATA ALL
#FILE:                       ,2024_02_16_SL_001H_280C_isotherm_1pt_min_SCB_with_100C_stabilization.ngb-ss5
#FORMAT:                     ,NETZSCH5
#FTYPE:                      ,ANSI
#IDENTITY:                   ,PS
#DECIMAL:                    ,POINT
#SEPARATOR:                  ,COMMA
#MTYPE:                      ,DSC
#INSTRUMENT:                 ,NETZSCH STA 449F5
#PROJECT:                    ,2024_02_16_SL_005
#DATE/TIME:                  ,2/16/2024 3:54:24 PM (UTC-5)
#CORR. FILE:                 ,
#TEMPCAL:                    ,28-06-2023 13:26
#SENSITIVITY:                ,28-06-2023 13:53
#LABORATORY:                 ,Tran/AAG
#OPERATOR:                   ,Stanley
#REMARK:                     ,
#SAMPLE:                     ,001H_control
#SAMPLE MASS /mg:            ,5.58
#MATERIAL:                   ,
#REFERENCE:                  ,
#REFERENCE MASS /mg:         ,0
#TYPE OF CRUCIBLE:           ,Al2O3 85 µl, open
#SAMPLE CRUCIBLE MASS /mg:   ,0
#REFERENCE CRUCIBLE MASS /mg:,0
#DSC RANGE /µV:              ,5000
#TG RANGE /mg:               ,35000
#TAU-R:                      ,---
#CORR. CODE:                 ,000
#EXO:                        ,-1
#RANGE:                      ,30°C....800°C/0.0....10.0K/min
#SEGMENT:                    ,S1-5/5
#SEG. 1:                     ,30°C/10.0(K/min)/100°C
#SEG. 2:                     ,100°C/00:10/100°C
#SEG. 3:                     ,100°C/10.0(K/min)/350°C
#SEG. 4:                     ,350°C/04:00/350°C
#SEG. 5:                     ,350°C/10.0(K/min)/800°C

##Temp./°C,Time/min,DSC/(mW/mg),Mass/%,Gas Flow(purge2)/(ml/min),Gas Flow(protective)/(ml/min),TIC(scan:1)/A,Sensit./(uV/mW),Segment
 28.63600,  0.00000, 7.404326e-02,    100,50.00000,20.00000,1.111666e-07,0.92329,1
 39.98000,  2.80000,      0.54716,     97.59140,50.00000,20.00000,1.330709e-07,0.92508,1
 66.47200,  5.60000,      1.15951,     99.64731,50.00000,20.00000,1.296257e-07,0.92602,1
 97.33100,  8.40000,      0.97376,     99.37348,50.00000,20.00000,1.254747e-07,0.92167,2
108.752, 11.20000,      0.25421,     97.49409,50.00000,20.00000,1.190079e-07,0.91865,2
109.844, 14.00000,     -0.12209,     95.88441,50.00000,20.00000,1.149483e-07,0.91833,2
106.882, 16.80000,     -0.22610,     94.78746,50.00000,20.00000,1.121377e-07,0.91920,2
114.605, 19.60000,      0.77981,     96.82509,50.00000,20.00000,1.097425e-07,0.91683,3
140.215, 22.40000,      1.62554,     98.25842,50.00000,20.00000,1.072489e-07,0.90673,3
173.475, 25.20000,      2.12791,     98.70054,50.00000,20.00000,1.055786e-07,0.88889,3
206.364, 28.00000,      2.03518,     98.59713,50.00000,20.00000,1.041389e-07,0.86678,3
236.773, 30.80000,      1.81237,     98.48351,50.00000,20.00000,1.027812e-07,0.84313,3
265.501, 33.60000,      1.72136,     98.29086,50.00000,20.00000,1.015248e-07,0.81861,3
293.457, 36.40000,      1.77045,     96.98530,50.00000,20.00000,1.004107e-07,0.79328,3
321.17, 39.20000,      1.92577,     93.29534,50.00000,20.00000,9.954844e-08,0.76728,3
348.878, 42.00000,      2.26014,     86.15878,50.00000,20.00000,9.885879e-08,0.74088,4
355.288, 44.80000,      0.36398,     75.91219,50.00000,20.00000,9.887550e-08,0.73477,4
354.184, 47.60000,-6.540747e-02,     67.95269,50.00000,20.00000,9.851107e-08,0.73582,4
352.557, 50.40000,     -0.13035,     61.94731,50.00000,20.00000,9.783503e-08,0.73737,4
351.322, 53.20000,     -0.13181,     57.17079,50.00000,20.00000,9.713662e-08,0.73855,4
350.703, 56.00000,     -0.13448,     53.14839,50.00000,20.00000,9.686817e-08,0.73914,4
350.36, 58.80000,     -0.13627,     49.70986,50.00000,20.00000,9.665459e-08,0.73947,4
350.19, 61.60000,     -0.14049,     46.66272,50.00000,20.00000,9.628810e-08,0.73963,4
350.113, 64.40000,     -0.14695,     43.95806,50.00000,20.00000,9.616214e-08,0.73970,4
350.079, 67.20000,     -0.15544,     41.50699,50.00000,20.00000,9.591934e-08,0.73974,4
350.048, 70.00000,     -0.16061,     39.27276,50.00000,20.00000,9.565997e-08,0.73977,4
350.032, 72.80000,     -0.16412,     37.23925,50.00000,20.00000,9.556979e-08,0.73978,4
350.024, 75.60000,     -0.16116,     35.38817,50.00000,20.00000,9.545284e-08,0.73979,4
350.016, 78.40000,     -0.16061,     33.66487,50.00000,20.00000,9.523080e-08,0.73980,4
350.024, 81.20000,     -0.15340,     32.07939,50.00000,20.00000,9.507450e-08,0.73979,4
350.029, 84.00000,     -0.14934,     30.61756,50.00000,20.00000,9.479218e-08,0.73978,4
350.036, 86.80000,     -0.14804,     29.24516,50.00000,20.00000,9.460408e-08,0.73978,4
350.022, 89.60000,     -0.15081,     27.98602,50.00000,20.00000,9.476643e-08,0.73979,4
350.019, 92.40000,     -0.15044,     26.77563,50.00000,20.00000,9.462537e-08,0.73979,4
350.029, 95.20000,     -0.14989,     25.68082,50.00000,20.00000,9.446206e-08,0.73978,4
350.034, 98.00000,     -0.15118,     24.62061,50.00000,20.00000,9.453443e-08,0.73978,4
350.019,100.8,     -0.15007,     23.61093,50.00000,20.00000,9.365795e-08,0.73979,4
350.039,103.6,     -0.14952,     22.69659,50.00000,20.00000,9.462484e-08,0.73978,4
350.038,106.4,     -0.14952,     21.79032,50.00000,20.00000,9.434014e-08,0.73978,4
350.027,109.2,     -0.15026,     20.96918,50.00000,20.00000,9.438293e-08,0.73979,4
350.023,112,     -0.14786,     20.19462,50.00000,20.00000,9.417498e-08,0.73979,4
350.02,114.8,     -0.14545,     19.48513,50.00000,20.00000,9.421849e-08,0.73979,4
350.034,117.6,     -0.14472,     18.80179,50.00000,20.00000,9.419453e-08,0.73978,4
350.034,120.4,     -0.14305,     18.11452,50.00000,20.00000,9.412988e-08,0.73978,4
350.031,123.2,     -0.14361,     17.52043,50.00000,20.00000,9.386753e-08,0.73978,4
350.047,126,     -0.14324,     16.90412,50.00000,20.00000,9.395849e-08,0.73977,4
350.042,128.8,     -0.14231,     16.33853,50.00000,20.00000,9.381579e-08,0.73977,4
350.026,131.6,     -0.13935,     15.78297,50.00000,20.00000,9.383191e-08,0.73979,4
350.031,134.4,     -0.13991,     15.29032,50.00000,20.00000,9.394615e-08,0.73978,4
350.039,137.2,     -0.13788,     14.79355,50.00000,20.00000,9.400295e-08,0.73978,4
350.026,140,     -0.13917,     14.32724,50.00000,20.00000,9.415155e-08,0.73979,4
350.029,142.8,     -0.13788,     13.88746,50.00000,20.00000,9.501816e-08,0.73978,4
350.025,145.6,     -0.13436,     13.45753,50.00000,20.00000,9.464756e-08,0.73979,4
350.024,148.4,     -0.13362,     13.05412,50.00000,20.00000,9.436953e-08,0.73979,4
350.029,151.2,     -0.13326,     12.67294,50.00000,20.00000,9.450191e-08,0.73978,4
350.036,154,     -0.13178,     12.29982,50.00000,20.00000,9.426221e-08,0.73978,4
350.037,156.8,     -0.13769,     11.95932,50.00000,20.00000,9.382151e-08,0.73978,4
350.025,159.6,     -0.13510,     11.66129,50.00000,20.00000,9.394142e-08,0.73979,4
350.032,162.4,     -0.13732,     11.33889,50.00000,20.00000,9.424872e-08,0.73978,4
350.038,165.2,     -0.13603,     11.04695,50.00000,20.00000,9.393894e-08,0.73978,4
350.037,168,     -0.13991,     10.75305,50.00000,20.00000,9.411501e-08,0.73978,4
350.043,170.8,     -0.14379,     10.49140,50.00000,20.00000,9.419998e-08,0.73977,4
350.027,173.6,     -0.15248,     10.19140,50.00000,20.00000,9.409284e-08,0.73979,4
350.029,176.4,     -0.16708,      9.93387,50.00000,20.00000,9.454043e-08,0.73978,4
350.043,179.2,     -0.18575,      9.65412,50.00000,20.00000,9.422511e-08,0.73977,4
350.045,182,     -0.20257,      9.41075,50.00000,20.00000,9.446540e-08,0.73977,4
350.048,184.8,     -0.22031,      9.18781,50.00000,20.00000,9.429982e-08,0.73977,4
350.022,187.6,     -0.23601,      8.93853,50.00000,20.00000,9.453733e-08,0.73979,4
350.033,190.4,     -0.25838,      8.71953,50.00000,20.00000,9.402247e-08,0.73978,4
350.027,193.2,     -0.27686,      8.49642,50.00000,20.00000,9.446239e-08,0.73979,4
350.034,196,     -0.28463,      8.27742,50.00000,20.00000,9.270687e-08,0.73978,4
350.048,198.8,     -0.29184,      8.07079,50.00000,20.00000,9.452480e-08,0.73977,4
350.018,201.6,     -0.29552,      7.90036,50.00000,20.00000,9.368108e-08,0.73980,4
350.015,204.4,     -0.29663,      7.71595,50.00000,20.00000,9.434696e-08,0.73980,4
350.028,207.2,     -0.30033,      7.50914,50.00000,20.00000,9.391894e-08,0.73979,4
350.034,210,     -0.30181,      7.30842,50.00000,20.00000,9.439865e-08,0.73978,4
350.044,212.8,     -0.30163,      7.12993,50.00000,20.00000,9.413288e-08,0.73977,4
350.024,215.6,     -0.30236,      6.95968,50.00000,20.00000,9.432912e-08,0.73979,4
350.03,218.4,     -0.29996,      6.80161,50.00000,20.00000,9.424728e-08,0.73978,4
350.033,221.2,     -0.29923,      6.61093,50.00000,20.00000,9.379422e-08,0.73978,4
350.039,224,     -0.29664,      6.45896,50.00000,20.00000,9.392954e-08,0.73978,4
350.035,226.8,     -0.29886,      6.31093,50.00000,20.00000,9.394023e-08,0.73978,4
350.032,229.6,     -0.29627,      6.15878,50.00000,20.00000,9.422174e-08,0.73978,4
350.024,232.4,     -0.29627,      6.01290,50.00000,20.00000,9.823411e-08,0.73979,4
350.028,235.2,     -0.29423,      5.84265,50.00000,20.00000,9.360776e-08,0.73979,4
350.034,238,     -0.29368,      5.70072,50.00000,20.00000,9.436223e-08,0.73978,4
350.021,240.8,     -0.29054,      5.57903,50.00000,20.00000,9.385100e-08,0.73979,4
350.029,243.6,     -0.29128,      5.42079,50.00000,20.00000,9.373147e-08,0.73978,4
350.036,246.4,     -0.28629,      5.28710,50.00000,20.00000,9.364505e-08,0.73978,4
350.028,249.2,     -0.28629,      5.16541,50.00000,20.00000,1.097929e-07,0.73979,4
350.022,252,     -0.28610,      5.04785,50.00000,20.00000,9.331902e-08,0.73979,4
350.031,254.8,     -0.28296,      4.89982,50.00000,20.00000,9.393595e-08,0.73978,4
350.039,257.6,     -0.28296,      4.77814,50.00000,20.00000,7.479306e-08,0.73978,4
350.033,260.4,     -0.28185,      4.67079,50.00000,20.00000,9.348064e-08,0.73978,4
350.023,263.2,     -0.27704,      4.54301,50.00000,20.00000,9.417715e-08,0.73979,4
350.022,266,     -0.27778,      4.41523,50.00000,20.00000,9.383937e-08,0.73979,4
350.031,268.8,     -0.27298,      4.34032,50.00000,20.00000,9.405350e-08,0.73978,4
350.033,271.6,     -0.27335,      4.24301,50.00000,20.00000,9.239940e-08,0.73978,4
350.038,274.4,     -0.27169,      4.11720,50.00000,20.00000,9.354665e-08,0.73978,4
350.017,277.2,     -0.27168,      4.00161,50.00000,20.00000,1.012277e-07,0.73980,4
350.02,280,     -0.26836,      3.91452,50.00000,20.00000,9.317355e-08,0.73979,4
353.814,282.8,      1.24419,      4.03208,50.00000,20.00000,9.274381e-08,0.73617,5
379.069,285.6,      2.64288,      4.50448,50.00000,20.00000,8.197388e-08,0.71217,5
408.651,288.4,      3.30408,      3.85358,50.00000,20.00000,9.525920e-08,0.68457,5
438.1,291.2,      4.08118,      1.15717,50.00000,20.00000,9.223638e-08,0.65801,5
466.829,294,      4.76325,     -0.40591,50.00000,20.00000,9.464198e-08,0.63328,5
495.121,296.8,      4.91771,-8.763441e-02,50.00000,20.00000,9.458062e-08,0.61028,5
523.193,299.6,      4.94178,      0.26720,50.00000,20.00000,9.354119e-08,0.58891,5
551.174,302.4,      4.75911,      0.57133,50.00000,20.00000,9.337124e-08,0.56911,5
579.165,305.2,      4.24955,      0.88154,50.00000,20.00000,9.417166e-08,0.55080,5
607.119,308,      3.08177,      1.13495,50.00000,20.00000,9.465139e-08,0.53395,5
635.107,310.8,      0.81258,      1.34176,50.00000,20.00000,9.496524e-08,0.51842,5
663.1,313.6,     -2.26540,      1.54857,50.00000,20.00000,9.516491e-08,0.50408,5
691.081,316.4,     -4.69440,      1.73710,50.00000,20.00000,9.859673e-08,0.49077,5
719.073,319.2,     -5.69413,      1.87688,50.00000,20.00000,9.365259e-08,0.47827,5
747.022,322,     -5.72401,      2.02903,50.00000,20.00000,8.452972e-08,0.46641,5
774.995,324.8,     -5.58903,      2.16272,50.00000,20.00000,9.896730e-08,0.45495,5
795.967,326.9,     -5.62418,      2.23891,50.00000,20.00000,9.666281e-08,0.44650,5