File: data/TGA/ExpDat_2024_02_16_SL_005J2-FLASH_PS_280C_isotherm_.csv
#EXPORTTYPE:                 ,DATA SINGLE
#FILE:                       ,2024_02_16_SL_005J2-FLASH_PS_280C_isotherm_1pt_min_SCB_with_100C_stabilization.ngb-ss5
#FORMAT:                     ,NETZSCH5
#FTYPE:                      ,ANSI
#IDENTITY:                   ,PS
#DECIMAL:                    ,POINT
#SEPARATOR:                  ,COMMA
#MTYPE:                      ,TG
#INSTRUMENT:                 ,NETZSCH STA 449F5
#PROJECT:                    ,2024_02_16_SL_005
#DATE/TIME:                  ,2/16/2024 8:45:27 AM (UTC-5)
#CORR. FILE:                 ,
#TEMPCAL:                    ,28-06-2023 13:26
#SENSITIVITY:                ,28-06-2023 13:53
#LABORATORY:                 ,DS
#OPERATOR:                   ,Stanley
#REMARK:                     ,
#SAMPLE:                     ,005J2-FLASH
#SAMPLE MASS /mg:            ,5.49
#MATERIAL:                   ,
#REFERENCE:                  ,
#REFERENCE MASS /mg:         ,0
#TYPE OF CRUCIBLE:           ,Al2O3 85 µl, open
#SAMPLE CRUCIBLE MASS /mg:   ,0
#REFERENCE CRUCIBLE MASS /mg:,0
#DSC RANGE /µV:              ,5000
#TG RANGE /mg:               ,35000
#TAU-R:                      ,---
#CORR. CODE:                 ,000
#EXO:                        ,-1
#RANGE:                      ,30°C....800°C/0.0....10.0K/min
#SEGMENT:                    ,S1-5/5
#SEG. 1:                     ,30°C/10.0(K/min)/100°C
#SEG. 2:                     ,100°C/00:10/100°C
#SEG. 3:                     ,100°C/10.0(K/min)/350°C
#SEG. 4:                     ,350°C/04:00/350°C
#SEG. 5:                     ,350°C/10.0(K/min)/800°C

##Temp./°C,Time/min,Mass/%,Segment
 31.91200,  0.00000,100,1
 32.71100,  1.10000,101.218,1
 36.79100,  2.20000,103.419,1
 43.48800,  3.30000,105.094,1
 52.70300,  4.40000,106.693,1
 64.22500,  5.50000,107.915,1
 77.26300,  6.60000,108.717,1
 90.44200,  7.70000,108.902,2
 99.40400,  8.80000,107.767,2
105.052,  9.90000,106.998,2
108.891, 11.00000,106.401,2
110.795, 12.10000,105.712,2
111.244, 13.20000,105.098,2
110.748, 14.30000,104.63,2
109.654, 15.40000,104.243,2
108.217, 16.50000,103.942,2
107.023, 17.60000,104.014,3
109.731, 18.70000,105.735,3
115.773, 19.80000,106.806,3
124.184, 20.90000,107.736,3
135.037, 22.00000,108.533,3
147.392, 23.10000,109.059,3
160.515, 24.20000,109.389,3
173.899, 25.30000,109.638,3
187.173, 26.40000,109.745,3
200.153, 27.50000,109.801,3
212.694, 28.60000,109.899,3
224.814, 29.70000,109.881,3
236.561, 30.80000,109.881,3
248.022, 31.90000,109.856,3
259.296, 33.00000,109.782,3
270.407, 34.10000,109.794,3
281.418, 35.20000,109.739,3
292.354, 36.30000,109.669,3
303.259, 37.40000,109.541,3
314.155, 38.50000,109.368,3
325.043, 39.60000,109.069,3
335.925, 40.70000,108.684,3
346.806, 41.80000,108.251,3
353.673, 42.90000,107.202,4
355.202, 44.00000,105.986,4
356.079, 45.10000,104.832,4
355.693, 46.20000,103.645,4
354.974, 47.30000,102.46,4
354.111, 48.40000,101.208,4
353.302, 49.50000,100.078,4
352.603, 50.60000, 99.09745,4
352.03, 51.70000, 98.10219,4
351.577, 52.80000, 97.09053,4
351.212, 53.90000, 96.14463,4
350.928, 55.00000, 95.13078,4
350.699, 56.10000, 94.19107,4
350.543, 57.20000, 93.26995,4
350.402, 58.30000, 92.32423,4
350.315, 59.40000, 91.41330,4
350.237, 60.50000, 90.53352,4
350.183, 61.60000, 89.64736,4
350.15, 62.70000, 88.76539,4
350.118, 63.80000, 87.91840,4
350.104, 64.90000, 87.04062,4
350.083, 66.00000, 86.14827,4
350.065, 67.10000, 85.30765,4
350.058, 68.20000, 84.46685,4
350.051, 69.30000, 83.65701,4
350.046, 70.40000, 82.83679,4
350.036, 71.50000, 82.06211,4
350.03, 72.60000, 81.21712,4
350.033, 73.70000, 80.40528,4
350.036, 74.80000, 79.62842,4
350.032, 75.90000, 78.83716,4
350.031, 77.00000, 78.04590,4
350.019, 78.10000, 77.27304,4
350.018, 79.20000, 76.49836,4
350.031, 80.30000, 75.75847,4
350.024, 81.40000, 74.98379,4
350.025, 82.50000, 74.28306,4
350.026, 83.60000, 73.54536,4
350.021, 84.70000, 72.82004,4
350.021, 85.80000, 72.10492,4
350.03, 86.90000, 71.36940,4
350.018, 88.00000, 70.67905,4
350.031, 89.10000, 69.99490,4
350.026, 90.20000, 69.28798,4
350.021, 91.30000, 68.61421,4
350.025, 92.40000, 67.94444,4
350.032, 93.50000, 67.31403,4
350.032, 94.60000, 66.63388,4
350.038, 95.70000, 66.00947,4
350.019, 96.80000, 65.36667,4
350.022, 97.90000, 64.72787,4
350.017, 99.00000, 64.10965,4
350.027,100.1, 63.47486,4
350.031,101.2, 62.86084,4
350.025,102.3, 62.27778,4
350.036,103.4, 61.66157,4
350.031,104.5, 61.09690,4
350.024,105.6, 60.49326,4
350.03,106.7, 59.91821,4
350.029,107.8, 59.37832,4
350.028,108.9, 58.82823,4
350.029,110, 58.29035,4
350.033,111.1, 57.71548,4
350.023,112.2, 57.21257,4
350.037,113.3, 56.66448,4
350.024,114.4, 56.13497,4
350.028,115.5, 55.64645,4
350.035,116.6, 55.13552,4
350.036,117.7, 54.62441,4
350.033,118.8, 54.10109,4
350.034,119.9, 53.62095,4
350.027,121, 53.16339,4
350.03,122.1, 52.66885,4
350.026,123.2, 52.20729,4
350.037,124.3, 51.72095,4
350.026,125.4, 51.28415,4
350.031,126.5, 50.82878,4
350.028,127.6, 50.37122,4
350.024,128.7, 49.91384,4
350.036,129.8, 49.51603,4
350.025,130.9, 49.08543,4
350.032,132, 48.65683,4
350.032,133.1, 48.24262,4
350.038,134.2, 47.85719,4
350.028,135.3, 47.45537,4
350.022,136.4, 47.01858,4
350.024,137.5, 46.63934,4
350.029,138.6, 46.23752,4
350.022,139.7, 45.87905,4
350.019,140.8, 45.47104,4
350.03,141.9, 45.09180,4
350.029,143, 44.71676,4
350.031,144.1, 44.36448,4
350.037,145.2, 44.01202,4
350.034,146.3, 43.65556,4
350.031,147.4, 43.32386,4
350.027,148.5, 42.97760,4
350.018,149.6, 42.64171,4
350.027,150.7, 42.31603,4
350.032,151.8, 41.96995,4
350.028,152.9, 41.63206,4
350.031,154, 41.32696,4
350.028,155.1, 40.98087,4
350.029,156.2, 40.70674,4
350.03,157.3, 40.39964,4
350.041,158.4, 40.09672,4
350.042,159.5, 39.77541,4
350.045,160.6, 39.49308,4
350.039,161.7, 39.20856,4
350.034,162.8, 38.90984,4
350.037,163.9, 38.60273,4
350.038,165, 38.35137,4
350.029,166.1, 38.07322,4
350.032,167.2, 37.79709,4
350.027,168.3, 37.53953,4
350.015,169.4, 37.28597,4
350.042,170.5, 37.03880,4
350.036,171.6, 36.76266,4
350.037,172.7, 36.50510,4
350.038,173.8, 36.26193,4
350.044,174.9, 35.98998,4
350.041,176, 35.76740,4
350.044,177.1, 35.51384,4
350.03,178.2, 35.29126,4
350.039,179.3, 35.03989,4
350.026,180.4, 34.79053,4
350.026,181.5, 34.57632,4
350.016,182.6, 34.36412,4
350.024,183.7, 34.12495,4
350.014,184.8, 33.92095,4
350.029,185.9, 33.71694,4
350.033,187, 33.49454,4
350.025,188.1, 33.28434,4
350.019,189.2, 33.05956,4
350.018,190.3, 32.85556,4
350.031,191.4, 32.65774,4
350.023,192.5, 32.45792,4
350.019,193.6, 32.24973,4
350.01,194.7, 32.07049,4
350.03,195.8, 31.89745,4
350.027,196.9, 31.69763,4
350.032,198, 31.48124,4
350.035,199.1, 31.29781,4
350.028,200.2, 31.10401,4
350.018,201.3, 30.94954,4
350.027,202.4, 30.76193,4
350.022,203.5, 30.57450,4
350.026,204.6, 30.42204,4
350.036,205.7, 30.24281,4
350.034,206.8, 30.07377,4
350.035,207.9, 29.88616,4
350.029,209, 29.71311,4
350.032,210.1, 29.57104,4
350.039,211.2, 29.39781,4
350.03,212.3, 29.27413,4
350.029,213.4, 29.10528,4
350.026,214.5, 28.93005,4
350.04,215.6, 28.76120,4
350.044,216.7, 28.64991,4
350.047,217.8, 28.48288,4
350.035,218.9, 28.31184,4
350.031,220, 28.21293,4
350.035,221.1, 28.03989,4
350.03,222.2, 27.91421,4
350.035,223.3, 27.75556,4
350.032,224.4, 27.62568,4
350.033,225.5, 27.46903,4
350.036,226.6, 27.37013,4
350.032,227.7, 27.19709,4
350.043,228.8, 27.07341,4
350.034,229.9, 26.94353,4
350.031,231, 26.82623,4
350.029,232.1, 26.69016,4
350.033,233.2, 26.57067,4
350.039,234.3, 26.42222,4
350.027,235.4, 26.27395,4
350.018,236.5, 26.19964,4
350.036,237.6, 26.09672,4
350.036,238.7, 25.95046,4
350.042,239.8, 25.83297,4
350.03,240.9, 25.72787,4
350.038,242, 25.60219,4
350.024,243.1, 25.48470,4
350.026,244.2, 25.35483,4
350.027,245.3, 25.29709,4
350.027,246.4, 25.15501,4
350.017,247.5, 25.04372,4
350.026,248.6, 24.95501,4
350.018,249.7, 24.85410,4
350.032,250.8, 24.72222,4
350.026,251.9, 24.60474,4
350.022,253, 24.52441,4
350.032,254.1, 24.41111,4
350.035,255.2, 24.31220,4
350.028,256.3, 24.19472,4
350.017,257.4, 24.11840,4
350.025,258.5, 24.01949,4
350.031,259.6, 23.88761,4
350.036,260.7, 23.83825,4
350.029,261.8, 23.73716,4
350.031,262.9, 23.63825,4
350.025,264, 23.53934,4
350.028,265.1, 23.46321,4
350.037,266.2, 23.37049,4
350.037,267.3, 23.26321,4
350.038,268.4, 23.20765,4
350.047,269.5, 23.12113,4
350.038,270.6, 23.02022,4
350.025,271.7, 22.92113,4
350.023,272.8, 22.85118,4
350.036,273.9, 22.75228,4
350.028,275, 22.69035,4
350.03,276.1, 22.56266,4
350.028,277.2, 22.52350,4
350.038,278.3, 22.44517,4
350.033,279.4, 22.35865,4
350.041,280.5, 22.28452,4
350.044,281.6, 22.18142,4
352.597,282.7, 22.28482,5
361.724,283.8, 22.60601,5
371.3,284.9, 22.64147,5
382.494,286, 22.55647,5
394.15,287.1, 22.24111,5
405.994,288.2, 21.50146,5
417.799,289.3, 20.24306,5
429.485,290.4, 18.67013,5
441.013,291.5, 17.22795,5
452.416,292.6, 16.32914,5
463.716,293.7, 15.96606,5
474.916,294.8, 16.07978,5
486.077,295.9, 16.21803,5
497.174,297, 16.35191,5
508.238,298.1, 16.48737,5
519.276,299.2, 16.60109,5
530.289,300.3, 16.73283,5
541.292,301.4, 16.85665,5
552.301,302.5, 16.96357,5
563.311,303.6, 17.06685,5
574.303,304.7, 17.17580,5
585.321,305.8, 17.27086,5
596.335,306.9, 17.38268,5
607.349,308, 17.45628,5
618.351,309.1, 17.57100,5
629.359,310.2, 17.65628,5
640.386,311.3, 17.73355,5
651.381,312.4, 17.80455,5
662.392,313.5, 17.87809,5
673.407,314.6, 17.95301,5
684.41,315.7, 17.99092,5
695.412,316.8, 18.07869,5
706.389,317.9, 18.08708,5
717.377,319, 18.17960,5
728.344,320.1, 18.21702,5
739.332,321.2, 18.29089,5
750.29,322.3, 18.34101,5
761.262,323.4, 18.38980,5
772.242,324.5, 18.44910,5
783.206,325.6, 18.51548,5
794.191,326.7, 18.54989,5