File: data/TGA/ExpDat_2024_03_13_Styrofoam-SCF3_350C_isotherm_1pt.csv
#EXPORTTYPE:                 ,DATA SINGLE
#FILE:                       ,2024_03_13_Styrofoam-SCF3_350C_isotherm_1pt_min_SCB_with_100C_stabilization.ngb-ss5
#FORMAT:                     ,NETZSCH5
#FTYPE:                      ,ANSI
#IDENTITY:                   ,Styrofoam-SCF3
#DECIMAL:                    ,POINT
#SEPARATOR:                  ,COMMA
#MTYPE:                      ,TG
#INSTRUMENT:                 ,NETZSCH STA 449F5
#PROJECT:                    ,005a-E
#DATE/TIME:                  ,3/13/2024 1:05:54 PM (UTC-4)
#CORR. FILE:                 ,
#TEMPCAL:                    ,28-06-2023 13:26
#SENSITIVITY:                ,28-06-2023 13:53
#LABORATORY:                 ,Tran/AAG
#OPERATOR:                   ,Stanley
#REMARK:                     ,
#SAMPLE:                     ,005a-F4
#SAMPLE MASS /mg:            ,5.25
#MATERIAL:                   ,
#REFERENCE:                  ,
#REFERENCE MASS /mg:         ,0
#TYPE OF CRUCIBLE:           ,Al2O3 85 µl, open
#SAMPLE CRUCIBLE MASS /mg:   ,0
#REFERENCE CRUCIBLE MASS /mg:,0
#DSC RANGE /µV:              ,5000
#TG RANGE /mg:               ,35000
#TAU-R:                      ,---
#CORR. CODE:                 ,000
#EXO:                        ,-1
#RANGE:                      ,30°C....800°C/0.0....10.0K/min
#SEGMENT:                    ,S1-5/5
#SEG. 1:                     ,30°C/10.0(K/min)/100°C
#SEG. 2:                     ,100°C/00:10/100°C
#SEG. 3:                     ,100°C/10.0(K/min)/350°C
#SEG. 4:                     ,350°C/04:00/350°C
#SEG. 5:                     ,350°C/10.0(K/min)/800°C

##Temp./°C,Time/min,Mass/%,Segment
 27.86000,  0.00000,    100,1
 34.66900,  2.00000,     97.00476,1
 49.90400,  4.00000,     98.45067,1
 71.93700,  6.00000,     99.19181,1
 94.91595,  8.00000,     98.85356,2
105.545, 10.00000,     96.31156,2
109.754, 12.00000,     93.77360,2
109.503, 14.00000,     91.87891,2
107.483, 16.00000,     90.63118,2
106.696, 18.00000,     90.67598,3
117.804, 20.00000,     92.20649,3
136.668, 22.00000,     93.07638,3
159.914, 24.00000,     93.25086,3
183.794, 26.00000,     92.90610,3
206.802, 28.00000,     92.43429,3
228.538, 30.00000,     91.91718,3
249.307, 32.00000,     91.34792,3
269.553, 34.00000,     90.72374,3
289.522, 36.00000,     89.59858,3
309.324, 38.00000,     87.69674,3
329.072, 40.00000,     84.81577,3
348.834, 42.00000,     80.42820,4
353.821, 44.00000,     73.26902,4
354.35, 46.00000,     66.18526,4
353.363, 48.00000,     59.70233,4
352.314, 50.00000,     54.10154,4
351.524, 52.00000,     49.23473,4
351.002, 54.00000,     45.04031,4
350.633, 56.00000,     41.36284,4
350.411, 58.00000,     38.04984,4
350.272, 60.00000,     35.08933,4
350.187, 62.00000,     32.45256,4
350.114, 64.00000,     30.04019,4
350.078, 66.00000,     27.88766,4
350.051, 68.00000,     25.89803,4
350.033, 70.00000,     24.11667,4
350.028, 72.00000,     22.54132,4
350.018, 74.00000,     20.99820,4
350.027, 76.00000,     19.61556,4
350.024, 78.00000,     18.32442,4
350.028, 80.00000,     17.13277,4
350.016, 82.00000,     16.03371,4
350.012, 84.00000,     15.03798,4
350.026, 86.00000,     14.03407,4
350.038, 88.00000,     13.16279,4
350.016, 90.00000,     12.37257,4
350.032, 92.00000,     11.56903,4
350.029, 94.00000,     10.87714,4
350.027, 96.00000,     10.16171,4
350.029, 98.00000,      9.52590,4
350.031,100,      8.95714,4
350.045,102,      8.35162,4
350.039,104,      7.84533,4
350.033,106,      7.31295,4
350.034,108,      6.83244,4
350.026,110,      6.35587,4
350.023,112,      5.94895,4
350.02,114,      5.51808,4
350.024,116,      5.11295,4
350.042,118,      4.75086,4
350.03,120,      4.42762,4
350.029,122,      4.08514,4
350.016,124,      3.75314,4
350.027,126,      3.43638,4
350.031,128,      3.15848,4
350.019,130,      2.87181,4
350.025,132,      2.59390,4
350.037,134,      2.33314,4
350.019,136,      2.12190,4
350.022,138,      1.90628,4
350.036,140,      1.70400,4
350.025,142,      1.44944,4
350.021,144,      1.26857,4
350.037,146,      1.03160,4
350.033,148,      0.89810,4
350.031,150,      0.69333,4
350.03,152,      0.55333,4
350.029,154,      0.39371,4
350.024,156,      0.26461,4
350.029,158,      0.11588,4
350.014,160,-2.667043e-03,4
350.022,162,     -0.14234,4
350.032,164,     -0.25277,4
350.027,166,     -0.40781,4
350.022,168,     -0.48530,4
350.029,170,     -0.61028,4
350.025,172,     -0.72457,4
350.035,174,     -0.78911,4
350.037,176,     -0.86038,4
350.022,178,     -0.95733,4
350.026,180,     -1.05040,4
350.036,182,     -1.15611,4
350.028,184,     -1.23314,4
350.027,186,     -1.31295,4
350.023,188,     -1.34743,4
350.034,190,     -1.40520,4
350.025,192,     -1.48053,4
350.035,194,     -1.52838,4
350.025,196,     -1.60800,4
350.038,198,     -1.66419,4
350.034,200,     -1.68571,4
350.024,202,     -1.72876,4
350.018,204,     -1.78038,4
350.034,206,     -1.83867,4
350.026,208,     -1.88381,4
350.026,210,     -1.91619,4
350.035,212,     -1.93771,4
350.041,214,     -1.96800,4
350.031,216,     -2.00248,4
350.032,218,     -2.06293,4
350.033,220,     -2.08438,4
350.035,222,     -2.09943,4
350.028,224,     -2.10800,4
350.03,226,     -2.13390,4
350.032,228,     -2.16190,4
350.023,230,     -2.15543,4
350.045,232,     -2.19638,4
350.033,234,     -2.17048,4
350.038,236,     -2.22229,4
350.038,238,     -2.23505,4
350.032,240,     -2.23733,4
350.032,242,     -2.25564,4
350.038,244,     -2.27599,4
350.027,246,     -2.25448,4
350.039,248,     -2.26046,4
350.021,250,     -2.27600,4
350.036,252,     -2.28248,4
350.027,254,     -2.27390,4
350.037,256,     -2.28895,4
350.031,258,     -2.31695,4
350.034,260,     -2.28477,4
350.042,262,     -2.32781,4
350.04,264,     -2.32558,4
350.034,266,     -2.31486,4
350.034,268,     -2.31008,4
350.044,270,     -2.34933,4
350.03,272,     -2.35790,4
350.036,274,     -2.37086,4
350.03,276,     -2.34495,4
350.044,278,     -2.35030,4
350.034,280,     -2.34286,4
349.992,282,     -2.34294,5
364.697,284,     -1.69762,5
383.871,286,     -1.33018,5
404.79,288,     -0.95923,5
425.747,290,     -0.69638,5
446.393,292,     -0.45706,5
466.748,294,     -0.24121,5
486.916,296,-2.146384e-02,5
506.99,298,      0.18411,5
526.998,300,      0.42577,5
546.976,302,      0.63763,5
566.947,304,      0.86061,5
586.908,306,      1.07441,5
606.901,308,      1.25654,5
626.915,310,      1.41727,5
646.9,312,      1.57569,5
666.89,314,      1.73693,5
686.903,316,      1.89397,5
706.922,318,      2.00417,5
726.924,320,      2.14757,5
746.953,322,      2.27573,5
766.964,324,      2.38472,5
786.951,326,      2.47649,5